Time (s),Temperature (K),Mass (mg)
0.000,297.000,3.904
20.843,297.500,3.904
34.356,298.000,3.904
45.065,298.500,3.902
54.241,299.000,3.903
62.341,299.500,3.903
69.692,300.000,3.903
76.523,300.500,3.903
82.895,301.000,3.903
88.921,301.500,3.903
94.669,302.000,3.902
100.146,302.500,3.902
105.429,303.000,3.902
110.515,303.500,3.901
115.435,304.000,3.903
120.216,304.500,3.903
124.889,305.000,3.904
129.448,305.500,3.903
133.871,306.000,3.903
138.242,306.500,3.906
142.483,307.000,3.905
146.650,307.500,3.907
150.777,308.000,3.906
154.809,308.500,3.906
158.794,309.000,3.905
162.730,309.500,3.906
166.601,310.000,3.903
170.425,310.500,3.904
174.232,311.000,3.902
177.954,311.500,3.903
181.656,312.000,3.902
185.307,312.500,3.901
188.946,313.000,3.902
192.532,313.500,3.901
196.090,314.000,3.901
199.599,314.500,3.900
203.116,315.000,3.900
206.584,315.500,3.900
210.030,316.000,3.899
213.436,316.500,3.899
216.839,317.000,3.899
220.236,317.500,3.900
223.577,318.000,3.899
226.895,318.500,3.898
230.221,319.000,3.899
233.521,319.500,3.899
236.795,320.000,3.899
240.073,320.500,3.898
243.321,321.000,3.900
246.551,321.500,3.899
249.779,322.000,3.898
252.985,322.500,3.900
256.173,323.000,3.899
259.356,323.500,3.900
262.520,324.000,3.900
265.687,324.500,3.901
268.827,325.000,3.900
271.957,325.500,3.899
275.103,326.000,3.899
278.221,326.500,3.899
281.319,327.000,3.898
284.417,327.500,3.898
287.520,328.000,3.898
290.588,328.500,3.898
293.662,329.000,3.897
296.718,329.500,3.896
299.784,330.000,3.897
302.829,330.500,3.896
305.863,331.000,3.895
308.895,331.500,3.896
311.916,332.000,3.894
314.952,332.500,3.893
317.969,333.000,3.891
320.967,333.500,3.891
323.967,334.000,3.891
326.975,334.500,3.891
329.970,335.000,3.890
332.954,335.500,3.890
335.940,336.000,3.889
338.910,336.500,3.889
341.892,337.000,3.889
344.845,337.500,3.889
347.807,338.000,3.888
350.769,338.500,3.888
353.721,339.000,3.888
356.677,339.500,3.887
359.625,340.000,3.887
362.539,340.500,3.885
365.488,341.000,3.886
368.425,341.500,3.885
371.348,342.000,3.885
374.266,342.500,3.885
377.198,343.000,3.885
380.124,343.500,3.885
383.042,344.000,3.885
385.956,344.500,3.885
388.855,345.000,3.887
391.765,345.500,3.887
394.670,346.000,3.887
397.575,346.500,3.887
400.472,347.000,3.885
403.373,347.500,3.885
406.271,348.000,3.885
409.169,348.500,3.885
412.044,349.000,3.883
414.936,349.500,3.883
417.819,350.000,3.884
420.718,350.500,3.883
423.589,351.000,3.883
426.480,351.500,3.883
429.365,352.000,3.882
432.225,352.500,3.882
435.120,353.000,3.881
437.991,353.500,3.880
440.864,354.000,3.880
443.730,354.500,3.879
446.597,355.000,3.879
449.468,355.500,3.878
452.334,356.000,3.876
455.195,356.500,3.876
458.065,357.000,3.876
460.918,357.500,3.876
463.786,358.000,3.876
466.654,358.500,3.876
469.516,359.000,3.876
472.357,359.500,3.876
475.233,360.000,3.874
478.081,360.500,3.874
480.930,361.000,3.874
483.785,361.500,3.872
486.642,362.000,3.872
489.505,362.500,3.872
492.344,363.000,3.872
495.191,363.500,3.872
498.048,364.000,3.872
500.894,364.500,3.872
503.762,365.000,3.872
506.591,365.500,3.872
509.444,366.000,3.872
512.293,366.500,3.870
515.126,367.000,3.870
517.979,367.500,3.869
520.821,368.000,3.868
523.666,368.500,3.867
526.496,369.000,3.866
529.350,369.500,3.868
532.194,370.000,3.868
535.032,370.500,3.867
537.876,371.000,3.867
540.731,371.500,3.867
543.579,372.000,3.867
546.415,372.500,3.867
549.248,373.000,3.867
552.110,373.500,3.866
554.945,374.000,3.867
557.796,374.500,3.867
560.619,375.000,3.867
563.462,375.500,3.866
566.302,376.000,3.864
569.137,376.500,3.865
571.979,377.000,3.865
574.816,377.500,3.863
577.656,378.000,3.863
580.493,378.500,3.863
583.335,379.000,3.863
586.171,379.500,3.863
589.011,380.000,3.864
591.847,380.500,3.864
594.694,381.000,3.865
597.525,381.500,3.865
600.362,382.000,3.866
603.202,382.500,3.866
606.039,383.000,3.867
608.868,383.500,3.865
611.711,384.000,3.866
614.560,384.500,3.866
617.386,385.000,3.866
620.219,385.500,3.867
623.059,386.000,3.867
625.892,386.500,3.867
628.731,387.000,3.865
631.562,387.500,3.866
634.397,388.000,3.866
637.250,388.500,3.866
640.073,389.000,3.867
642.921,389.500,3.868
645.751,390.000,3.868
648.589,390.500,3.868
651.419,391.000,3.866
654.259,391.500,3.868
657.093,392.000,3.868
659.931,392.500,3.868
662.763,393.000,3.867
665.614,393.500,3.867
668.442,394.000,3.867
671.280,394.500,3.867
674.110,395.000,3.867
676.941,395.500,3.866
679.783,396.000,3.868
682.619,396.500,3.868
685.459,397.000,3.867
688.290,397.500,3.866
691.131,398.000,3.866
693.961,398.500,3.867
696.791,399.000,3.866
699.625,399.500,3.866
702.469,400.000,3.866
705.304,400.500,3.866
708.139,401.000,3.865
710.981,401.500,3.865
713.829,402.000,3.865
716.659,402.500,3.865
719.496,403.000,3.865
722.328,403.500,3.864
725.167,404.000,3.864
728.002,404.500,3.864
730.842,405.000,3.864
733.677,405.500,3.863
736.515,406.000,3.863
739.340,406.500,3.863
742.191,407.000,3.861
745.027,407.500,3.863
747.875,408.000,3.863
750.702,408.500,3.863
753.542,409.000,3.863
756.383,409.500,3.863
759.219,410.000,3.863
762.061,410.500,3.863
764.897,411.000,3.863
767.728,411.500,3.863
770.562,412.000,3.865
773.402,412.500,3.865
776.234,413.000,3.866
779.071,413.500,3.864
781.907,414.000,3.864
784.756,414.500,3.864
787.582,415.000,3.864
790.419,415.500,3.864
793.253,416.000,3.864
796.108,416.500,3.864
798.945,417.000,3.864
801.785,417.500,3.864
804.631,418.000,3.864
807.462,418.500,3.864
810.304,419.000,3.864
813.139,419.500,3.862
815.984,420.000,3.862
818.838,420.500,3.862
821.659,421.000,3.862
824.494,421.500,3.862
827.336,422.000,3.863
830.178,422.500,3.863
833.008,423.000,3.864
835.854,423.500,3.864
838.688,424.000,3.864
841.522,424.500,3.864
844.368,425.000,3.864
847.206,425.500,3.864
850.049,426.000,3.862
852.882,426.500,3.862
855.723,427.000,3.862
858.551,427.500,3.863
861.404,428.000,3.863
864.247,428.500,3.863
867.088,429.000,3.863
869.911,429.500,3.863
872.761,430.000,3.861
875.596,430.500,3.861
878.444,431.000,3.861
881.280,431.500,3.861
884.125,432.000,3.861
886.962,432.500,3.861
889.793,433.000,3.862
892.648,433.500,3.861
895.482,434.000,3.861
898.318,434.500,3.861
901.158,435.000,3.861
903.996,435.500,3.862
906.836,436.000,3.862
909.676,436.500,3.862
912.513,437.000,3.861
915.354,437.500,3.862
918.191,438.000,3.862
921.031,438.500,3.862
923.865,439.000,3.863
926.694,439.500,3.863
929.533,440.000,3.862
932.374,440.500,3.862
935.208,441.000,3.862
938.048,441.500,3.862
940.885,442.000,3.862
943.734,442.500,3.862
946.567,443.000,3.862
949.408,443.500,3.862
952.250,444.000,3.859
955.094,444.500,3.859
957.933,445.000,3.859
960.779,445.500,3.859
963.612,446.000,3.859
966.458,446.500,3.859
969.288,447.000,3.858
972.138,447.500,3.858
974.974,448.000,3.857
977.804,448.500,3.857
980.658,449.000,3.856
983.472,449.500,3.856
986.319,450.000,3.856
989.163,450.500,3.856
992.008,451.000,3.856
994.842,451.500,3.856
997.676,452.000,3.856
1000.519,452.500,3.856
1003.363,453.000,3.856
1006.204,453.500,3.856
1009.055,454.000,3.856
1011.883,454.500,3.856
1014.729,455.000,3.856
1017.574,455.500,3.856
1020.414,456.000,3.856
1023.259,456.500,3.855
1026.104,457.000,3.853
1028.939,457.500,3.853
1031.783,458.000,3.853
1034.614,458.500,3.853
1037.461,459.000,3.853
1040.291,459.500,3.851
1043.144,460.000,3.851
1045.985,460.500,3.851
1048.827,461.000,3.850
1051.665,461.500,3.849
1054.512,462.000,3.849
1057.363,462.500,3.849
1060.193,463.000,3.847
1063.049,463.500,3.847
1065.876,464.000,3.846
1068.717,464.500,3.846
1071.565,465.000,3.846
1074.419,465.500,3.846
1077.254,466.000,3.845
1080.094,466.500,3.845
1082.945,467.000,3.844
1085.781,467.500,3.844
1088.631,468.000,3.844
1091.461,468.500,3.843
1094.302,469.000,3.843
1097.145,469.500,3.843
1099.985,470.000,3.842
1102.825,470.500,3.841
1105.663,471.000,3.838
1108.512,471.500,3.837
1111.356,472.000,3.837
1114.194,472.500,3.835
1117.042,473.000,3.833
1119.884,473.500,3.833
1122.723,474.000,3.833
1125.571,474.500,3.831
1128.410,475.000,3.831
1131.264,475.500,3.829
1134.105,476.000,3.829
1136.951,476.500,3.829
1139.791,477.000,3.827
1142.631,477.500,3.826
1145.488,478.000,3.825
1148.328,478.500,3.824
1151.172,479.000,3.824
1154.014,479.500,3.823
1156.853,480.000,3.822
1159.705,480.500,3.820
1162.546,481.000,3.817
1165.391,481.500,3.815
1168.234,482.000,3.813
1171.089,482.500,3.813
1173.937,483.000,3.811
1176.785,483.500,3.810
1179.619,484.000,3.809
1182.463,484.500,3.809
1185.299,485.000,3.808
1188.141,485.500,3.807
1190.978,486.000,3.807
1193.835,486.500,3.806
1196.681,487.000,3.805
1199.526,487.500,3.804
1202.358,488.000,3.803
1205.221,488.500,3.799
1208.054,489.000,3.797
1210.898,489.500,3.797
1213.750,490.000,3.795
1216.596,490.500,3.794
1219.431,491.000,3.793
1222.275,491.500,3.791
1225.113,492.000,3.790
1227.948,492.500,3.787
1230.786,493.000,3.787
1233.640,493.500,3.785
1236.477,494.000,3.785
1239.320,494.500,3.783
1242.156,495.000,3.781
1245.004,495.500,3.780
1247.848,496.000,3.779
1250.693,496.500,3.776
1253.548,497.000,3.774
1256.393,497.500,3.774
1259.219,498.000,3.772
1262.065,498.500,3.772
1264.906,499.000,3.770
1267.748,499.500,3.770
1270.587,500.000,3.768
1273.431,500.500,3.767
1276.284,501.000,3.765
1279.128,501.500,3.764
1281.976,502.000,3.765
1284.814,502.500,3.764
1287.661,503.000,3.762
1290.510,503.500,3.761
1293.355,504.000,3.760
1296.196,504.500,3.758
1299.044,505.000,3.758
1301.891,505.500,3.756
1304.733,506.000,3.756
1307.585,506.500,3.753
1310.429,507.000,3.751
1313.271,507.500,3.750
1316.121,508.000,3.748
1318.967,508.500,3.745
1321.802,509.000,3.743
1324.667,509.500,3.743
1327.525,510.000,3.741
1330.363,510.500,3.739
1333.216,511.000,3.737
1336.055,511.500,3.736
1338.906,512.000,3.735
1341.761,512.500,3.734
1344.599,513.000,3.733
1347.457,513.500,3.730
1350.304,514.000,3.729
1353.140,514.500,3.727
1355.990,515.000,3.724
1358.849,515.500,3.723
1361.694,516.000,3.720
1364.546,516.500,3.719
1367.399,517.000,3.717
1370.241,517.500,3.715
1373.087,518.000,3.713
1375.943,518.500,3.711
1378.775,519.000,3.710
1381.638,519.500,3.708
1384.483,520.000,3.705
1387.341,520.500,3.705
1390.183,521.000,3.702
1393.042,521.500,3.701
1395.883,522.000,3.699
1398.734,522.500,3.697
1401.599,523.000,3.695
1404.446,523.500,3.692
1407.288,524.000,3.690
1410.151,524.500,3.687
1412.993,525.000,3.685
1415.858,525.500,3.682
1418.711,526.000,3.681
1421.562,526.500,3.677
1424.427,527.000,3.675
1427.273,527.500,3.672
1430.133,528.000,3.670
1432.980,528.500,3.668
1435.848,529.000,3.665
1438.699,529.500,3.663
1441.552,530.000,3.661
1444.414,530.500,3.657
1447.275,531.000,3.654
1450.137,531.500,3.654
1452.991,532.000,3.652
1455.848,532.500,3.650
1458.704,533.000,3.646
1461.568,533.500,3.644
1464.425,534.000,3.642
1467.293,534.500,3.639
1470.156,535.000,3.636
1473.008,535.500,3.633
1475.864,536.000,3.631
1478.736,536.500,3.627
1481.602,537.000,3.623
1484.464,537.500,3.620
1487.316,538.000,3.614
1490.184,538.500,3.612
1493.048,539.000,3.609
1495.904,539.500,3.605
1498.774,540.000,3.603
1501.633,540.500,3.600
1504.510,541.000,3.597
1507.362,541.500,3.593
1510.223,542.000,3.590
1513.091,542.500,3.589
1515.960,543.000,3.585
1518.825,543.500,3.582
1521.683,544.000,3.578
1524.559,544.500,3.574
1527.419,545.000,3.571
1530.288,545.500,3.566
1533.151,546.000,3.564
1536.019,546.500,3.560
1538.879,547.000,3.557
1541.742,547.500,3.551
1544.602,548.000,3.548
1547.476,548.500,3.545
1550.339,549.000,3.541
1553.208,549.500,3.537
1556.076,550.000,3.532
1558.955,550.500,3.529
1561.808,551.000,3.525
1564.681,551.500,3.520
1567.542,552.000,3.516
1570.408,552.500,3.513
1573.287,553.000,3.507
1576.160,553.500,3.504
1579.023,554.000,3.498
1581.904,554.500,3.493
1584.763,555.000,3.486
1587.631,555.500,3.482
1590.505,556.000,3.477
1593.376,556.500,3.471
1596.248,557.000,3.467
1599.129,557.500,3.461
1601.994,558.000,3.456
1604.867,558.500,3.454
1607.748,559.000,3.448
1610.602,559.500,3.443
1613.481,560.000,3.438
1616.342,560.500,3.434
1619.231,561.000,3.430
1622.104,561.500,3.423
1624.978,562.000,3.419
1627.852,562.500,3.412
1630.714,563.000,3.407
1633.596,563.500,3.401
1636.477,564.000,3.396
1639.340,564.500,3.391
1642.215,565.000,3.385
1645.085,565.500,3.379
1647.958,566.000,3.371
1650.842,566.500,3.365
1653.710,567.000,3.360
1656.585,567.500,3.354
1659.469,568.000,3.348
1662.342,568.500,3.342
1665.225,569.000,3.336
1668.094,569.500,3.330
1670.971,570.000,3.325
1673.846,570.500,3.320
1676.731,571.000,3.313
1679.613,571.500,3.306
1682.490,572.000,3.300
1685.372,572.500,3.294
1688.246,573.000,3.286
1691.120,573.500,3.279
1693.996,574.000,3.272
1696.878,574.500,3.265
1699.760,575.000,3.259
1702.636,575.500,3.253
1705.517,576.000,3.245
1708.402,576.500,3.238
1711.268,577.000,3.231
1714.154,577.500,3.223
1717.035,578.000,3.216
1719.911,578.500,3.209
1722.785,579.000,3.202
1725.667,579.500,3.196
1728.554,580.000,3.190
1731.436,580.500,3.183
1734.312,581.000,3.175
1737.207,581.500,3.167
1740.087,582.000,3.159
1742.974,582.500,3.150
1745.854,583.000,3.139
1748.744,583.500,3.131
1751.625,584.000,3.123
1754.506,584.500,3.117
1757.393,585.000,3.110
1760.275,585.500,3.104
1763.175,586.000,3.095
1766.049,586.500,3.088
1768.945,587.000,3.078
1771.835,587.500,3.070
1774.728,588.000,3.059
1777.611,588.500,3.052
1780.511,589.000,3.044
1783.413,589.500,3.031
1786.297,590.000,3.023
1789.189,590.500,3.015
1792.069,591.000,3.007
1794.974,591.500,2.997
1797.860,592.000,2.987
1800.762,592.500,2.979
1803.648,593.000,2.971
1806.543,593.500,2.961
1809.436,594.000,2.953
1812.342,594.500,2.944
1815.237,595.000,2.935
1818.133,595.500,2.925
1821.025,596.000,2.916
1823.928,596.500,2.906
1826.835,597.000,2.897
1829.724,597.500,2.888
1832.631,598.000,2.878
1835.527,598.500,2.868
1838.418,599.000,2.859
1841.325,599.500,2.849
1844.231,600.000,2.840
1847.133,600.500,2.830
1850.025,601.000,2.820
1852.934,601.500,2.809
1855.831,602.000,2.798
1858.740,602.500,2.788
1861.644,603.000,2.778
1864.552,603.500,2.767
1867.454,604.000,2.757
1870.361,604.500,2.745
1873.264,605.000,2.737
1876.169,605.500,2.726
1879.084,606.000,2.717
1881.985,606.500,2.705
1884.889,607.000,2.694
1887.791,607.500,2.683
1890.701,608.000,2.671
1893.615,608.500,2.660
1896.531,609.000,2.648
1899.431,609.500,2.637
1902.346,610.000,2.626
1905.254,610.500,2.615
1908.161,611.000,2.603
1911.077,611.500,2.592
1913.978,612.000,2.581
1916.905,612.500,2.570
1919.809,613.000,2.559
1922.730,613.500,2.547
1925.653,614.000,2.535
1928.562,614.500,2.522
1931.481,615.000,2.510
1934.383,615.500,2.498
1937.313,616.000,2.486
1940.219,616.500,2.472
1943.146,617.000,2.460
1946.072,617.500,2.447
1948.996,618.000,2.435
1951.920,618.500,2.420
1954.831,619.000,2.407
1957.754,619.500,2.394
1960.684,620.000,2.382
1963.619,620.500,2.369
1966.531,621.000,2.357
1969.460,621.500,2.345
1972.385,622.000,2.332
1975.313,622.500,2.318
1978.243,623.000,2.304
1981.166,623.500,2.291
1984.105,624.000,2.273
1987.039,624.500,2.252
1989.971,625.000,2.236
1992.890,625.500,2.222
1995.819,626.000,2.209
1998.760,626.500,2.198
2001.698,627.000,2.185
2004.627,627.500,2.172
2007.574,628.000,2.158
2010.505,628.500,2.144
2013.443,629.000,2.126
2016.385,629.500,2.107
2019.324,630.000,2.095
2022.266,630.500,2.081
2025.208,631.000,2.061
2028.138,631.500,2.044
2031.090,632.000,2.028
2034.033,632.500,2.013
2036.983,633.000,1.998
2039.922,633.500,1.981
2042.870,634.000,1.963
2045.806,634.500,1.947
2048.760,635.000,1.930
2051.708,635.500,1.914
2054.660,636.000,1.897
2057.607,636.500,1.877
2060.554,637.000,1.861
2063.485,637.500,1.843
2066.443,638.000,1.824
2069.392,638.500,1.807
2072.334,639.000,1.788
2075.287,639.500,1.770
2078.239,640.000,1.751
2081.185,640.500,1.732
2084.127,641.000,1.712
2087.067,641.500,1.694
2090.008,642.000,1.676
2092.960,642.500,1.656
2095.899,643.000,1.638
2098.835,643.500,1.618
2101.777,644.000,1.599
2104.705,644.500,1.580
2107.644,645.000,1.561
2110.578,645.500,1.542
2113.507,646.000,1.522
2116.419,646.500,1.503
2119.361,647.000,1.484
2122.284,647.500,1.468
2125.192,648.000,1.448
2128.102,648.500,1.427
2131.031,649.000,1.410
2133.932,649.500,1.391
2136.837,650.000,1.372
2139.749,650.500,1.352
2142.637,651.000,1.333
2145.534,651.500,1.316
2148.429,652.000,1.300
2151.306,652.500,1.283
2154.185,653.000,1.265
2157.071,653.500,1.249
2159.937,654.000,1.231
2162.816,654.500,1.216
2165.682,655.000,1.204
2168.544,655.500,1.192
2171.417,656.000,1.183
2174.281,656.500,1.171
2177.129,657.000,1.160
2179.996,657.500,1.147
2182.859,658.000,1.134
2185.719,658.500,1.123
2188.575,659.000,1.113
2191.458,659.500,1.105
2194.283,660.000,1.096
2197.150,660.500,1.090
2200.021,661.000,1.084
2202.883,661.500,1.078
2205.766,662.000,1.072
2208.633,662.500,1.066
2211.511,663.000,1.061
2214.387,663.500,1.056
2217.272,664.000,1.050
2220.167,664.500,1.044
2223.068,665.000,1.040
2225.965,665.500,1.036
2228.872,666.000,1.033
2231.778,666.500,1.030
2234.689,667.000,1.028
2237.608,667.500,1.025
2240.533,668.000,1.023
2243.446,668.500,1.020
2246.378,669.000,1.017
2249.305,669.500,1.014
2252.241,670.000,1.013
2255.157,670.500,1.012
2258.102,671.000,1.010
2261.037,671.500,1.008
2263.977,672.000,1.006
2266.909,672.500,1.003
2269.848,673.000,1.001
2272.778,673.500,0.999
2275.728,674.000,0.997
2278.660,674.500,0.994
2281.601,675.000,0.991
2284.542,675.500,0.989
2287.484,676.000,0.988
2290.425,676.500,0.985
2293.366,677.000,0.983
2296.319,677.500,0.983
2299.256,678.000,0.981
2302.201,678.500,0.979
2305.140,679.000,0.977
2308.080,679.500,0.976
2311.035,680.000,0.974
2313.971,680.500,0.973
2316.903,681.000,0.971
2319.849,681.500,0.968
2322.801,682.000,0.967
2325.759,682.500,0.966
2328.696,683.000,0.966
2331.640,683.500,0.964
2334.590,684.000,0.962
2337.531,684.500,0.962
2340.479,685.000,0.960
2343.427,685.500,0.958
2346.378,686.000,0.956
2349.331,686.500,0.955
2352.289,687.000,0.953
2355.237,687.500,0.951
2358.184,688.000,0.949
2361.143,688.500,0.949
2364.087,689.000,0.947
2367.047,689.500,0.945
2369.996,690.000,0.944
2372.943,690.500,0.943
2375.898,691.000,0.941
2378.854,691.500,0.940
2381.813,692.000,0.940
2384.765,692.500,0.939
2387.716,693.000,0.939
2390.678,693.500,0.937
2393.637,694.000,0.937
2396.601,694.500,0.935
2399.554,695.000,0.933
2402.512,695.500,0.933
2405.481,696.000,0.932
2408.435,696.500,0.931
2411.399,697.000,0.928
2414.354,697.500,0.928
2417.319,698.000,0.926
2420.278,698.500,0.924
2423.233,699.000,0.923
2426.202,699.500,0.920
2429.162,700.000,0.918
2432.129,700.500,0.915
2435.098,701.000,0.912
2438.071,701.500,0.911
2441.031,702.000,0.910
2443.989,702.500,0.910
2446.960,703.000,0.908
2449.926,703.500,0.906
2452.892,704.000,0.906
2455.866,704.500,0.903
2458.829,705.000,0.902
2461.793,705.500,0.901
2464.767,706.000,0.900
2467.737,706.500,0.899
2470.713,707.000,0.897
2473.674,707.500,0.896
2476.653,708.000,0.895
2479.623,708.500,0.893
2482.601,709.000,0.892
2485.575,709.500,0.890
2488.548,710.000,0.889
2491.525,710.500,0.888
2494.491,711.000,0.886
2497.472,711.500,0.884
2500.431,712.000,0.884
2503.408,712.500,0.882
2506.389,713.000,0.882
2509.372,713.500,0.880
2512.346,714.000,0.880
2515.324,714.500,0.878
2518.300,715.000,0.877
2521.272,715.500,0.876
2524.251,716.000,0.875
2527.233,716.500,0.873
2530.209,717.000,0.871
2533.196,717.500,0.869
2536.167,718.000,0.867
2539.152,718.500,0.866
2542.131,719.000,0.864
2545.110,719.500,0.863
2548.101,720.000,0.863
2551.082,720.500,0.862
2554.064,721.000,0.864
2557.041,721.500,0.863
2560.029,722.000,0.863
2563.013,722.500,0.862
2565.993,723.000,0.862
2568.987,723.500,0.861
2571.976,724.000,0.859
2574.965,724.500,0.857
2577.954,725.000,0.855
2580.934,725.500,0.854
2583.915,726.000,0.852
2586.902,726.500,0.850
2589.902,727.000,0.848
2592.886,727.500,0.848
2595.861,728.000,0.848
2598.867,728.500,0.844
2601.849,729.000,0.843
2604.843,729.500,0.842
2607.831,730.000,0.841
2610.813,730.500,0.840
2613.801,731.000,0.840
2616.801,731.500,0.838
2619.783,732.000,0.836
2622.771,732.500,0.836
2625.764,733.000,0.836
2628.759,733.500,0.834
2631.747,734.000,0.834
2634.740,734.500,0.832
2637.728,735.000,0.831
2640.712,735.500,0.829
2643.705,736.000,0.828
2646.706,736.500,0.826
2649.687,737.000,0.824
2652.681,737.500,0.824
