Time (s),Temperature (K),HRR (W/g)
73.349,409,-0.0254
73.806,409.5,-0.0277
74.283,410,-0.0198
74.773,410.5,-0.0024
75.258,411,0.0228
75.739,411.5,0.0466
76.199,412,0.0371
76.651,412.5,0.0021
77.146,413,-0.0290
77.614,413.5,-0.0377
78.078,414,-0.0711
78.552,414.5,-0.0867
79.022,415,-0.0387
79.485,415.5,-0.0295
80.005,416,-0.0085
80.486,416.5,-0.0016
80.932,417,-0.0068
81.435,417.5,-0.0333
81.917,418,-0.0469
82.398,418.5,-0.1028
82.854,419,-0.1062
83.347,419.5,-0.0334
83.831,420,-0.0024
84.298,420.5,-0.0068
84.762,421,0.0110
85.240,421.5,0.0178
85.730,422,0.0033
86.201,422.5,0.0112
86.679,423,0.0288
87.188,423.5,0.0228
87.670,424,0.0131
88.154,424.5,0.0315
88.613,425,0.0256
89.103,425.5,0.0500
89.573,426,0.0736
90.045,426.5,0.1233
90.554,427,0.0953
91.056,427.5,0.1496
91.500,428,0.1362
92.022,428.5,0.1475
92.497,429,0.1308
92.984,429.5,0.1690
93.457,430,0.1798
93.984,430.5,0.1537
94.432,431,0.1571
94.919,431.5,0.1542
95.397,432,0.1499
95.882,432.5,0.1716
96.357,433,0.2004
96.868,433.5,0.2225
97.356,434,0.2902
97.843,434.5,0.3499
98.330,435,0.3713
98.814,435.5,0.4041
99.316,436,0.4516
99.791,436.5,0.4360
100.267,437,0.4154
100.762,437.5,0.4379
101.261,438,0.4439
101.740,438.5,0.4532
102.203,439,0.4991
102.685,439.5,0.5347
103.187,440,0.5770
103.688,440.5,0.6614
104.189,441,0.6881
104.691,441.5,0.7110
105.183,442,0.7723
105.694,442.5,0.8189
106.186,443,0.8315
106.654,443.5,0.8536
107.146,444,0.8572
107.636,444.5,0.8855
108.120,445,0.9171
108.609,445.5,0.9597
109.117,446,1.0070
109.590,446.5,1.0604
110.061,447,1.1003
110.565,447.5,1.1598
111.063,448,1.1250
111.538,448.5,1.1080
112.009,449,1.2128
112.552,449.5,1.2415
113.030,450,1.2655
113.487,450.5,1.3173
113.972,451,1.3452
114.477,451.5,1.3738
114.972,452,1.3715
115.446,452.5,1.4337
115.924,453,1.4726
116.443,453.5,1.4725
116.924,454,1.5286
117.404,454.5,1.5889
117.896,455,1.6264
118.393,455.5,1.6538
118.876,456,1.6738
119.389,456.5,1.7459
119.861,457,1.7621
120.330,457.5,1.7993
120.836,458,1.8942
121.343,458.5,1.9571
121.838,459,1.9848
122.314,459.5,2.0087
122.792,460,2.0489
123.296,460.5,2.1209
123.797,461,2.1876
124.277,461.5,2.2364
124.769,462,2.2721
125.274,462.5,2.3104
125.776,463,2.3829
126.263,463.5,2.4529
126.749,464,2.4879
127.254,464.5,2.5335
127.763,465,2.5812
128.252,465.5,2.6354
128.731,466,2.6949
129.221,466.5,2.7228
129.716,467,2.7518
130.193,467.5,2.7995
130.669,468,2.8476
131.178,468.5,2.9049
131.681,469,2.9934
132.178,469.5,3.0498
132.677,470,3.1018
133.160,470.5,3.1964
133.640,471,3.2441
134.122,471.5,3.2951
134.606,472,3.3828
135.143,472.5,3.4359
135.628,473,3.5407
136.103,473.5,3.6072
136.629,474,3.6565
137.125,474.5,3.7108
137.603,475,3.8085
138.083,475.5,3.8601
138.570,476,3.9244
139.066,476.5,3.9813
139.564,477,4.0805
140.051,477.5,4.1696
140.525,478,4.2627
141.019,478.5,4.3387
141.514,479,4.4420
142.018,479.5,4.5330
142.506,480,4.6611
143.048,480.5,4.7584
143.514,481,4.8618
144.029,481.5,4.9290
144.509,482,5.0275
144.981,482.5,5.0725
145.505,483,5.2064
145.987,483.5,5.2987
146.475,484,5.3704
146.977,484.5,5.4771
147.453,485,5.5997
147.973,485.5,5.6904
148.461,486,5.7548
148.989,486.5,5.8844
149.462,487,5.9978
149.950,487.5,6.0923
150.473,488,6.1464
150.976,488.5,6.2814
151.479,489,6.3782
151.965,489.5,6.5318
152.462,490,6.6254
152.965,490.5,6.6713
153.427,491,6.7996
153.918,491.5,6.9329
154.428,492,7.0639
154.937,492.5,7.2091
155.414,493,7.3068
155.914,493.5,7.4336
156.404,494,7.5914
156.899,494.5,7.6780
157.403,495,7.8031
157.891,495.5,7.9120
158.413,496,8.0434
158.883,496.5,8.1384
159.382,497,8.2636
159.867,497.5,8.3955
160.360,498,8.5223
160.863,498.5,8.6668
161.351,499,8.7601
161.847,499.5,8.8954
162.356,500,9.0462
162.850,500.5,9.1764
163.336,501,9.3026
163.835,501.5,9.4595
164.323,502,9.5855
164.817,502.5,9.7278
165.308,503,9.8663
165.822,503.5,10.0200
166.329,504,10.1952
166.799,504.5,10.3047
167.325,505,10.4471
167.821,505.5,10.5838
168.301,506,10.7046
168.822,506.5,10.8512
169.326,507,10.9572
169.801,507.5,11.0758
170.295,508,11.2245
170.806,508.5,11.3999
171.307,509,11.5439
171.841,509.5,11.6507
172.325,510,11.7684
172.806,510.5,11.9174
173.315,511,12.0667
173.807,511.5,12.1687
174.301,512,12.2929
174.804,512.5,12.4289
175.298,513,12.5688
175.797,513.5,12.6871
176.290,514,12.8075
176.782,514.5,12.9180
177.269,515,12.9786
177.780,515.5,13.0910
178.291,516,13.2162
178.776,516.5,13.3276
179.273,517,13.4405
179.767,517.5,13.5200
180.265,518,13.5805
180.773,518.5,13.6404
181.267,519,13.7268
181.747,519.5,13.8009
182.247,520,13.8575
182.761,520.5,13.9179
183.254,521,13.9886
183.752,521.5,14.0915
184.261,522,14.1849
184.753,522.5,14.2581
185.240,523,14.3318
185.749,523.5,14.3935
186.268,524,14.4572
186.766,524.5,14.5137
187.271,525,14.5602
187.773,525.5,14.5999
188.263,526,14.6310
188.749,526.5,14.6668
189.249,527,14.7096
189.741,527.5,14.7334
190.228,528,14.7704
190.733,528.5,14.8327
191.240,529,14.9100
191.755,529.5,14.9931
192.246,530,15.0356
192.749,530.5,15.0539
193.246,531,15.0931
193.737,531.5,15.1379
194.247,532,15.1644
194.747,532.5,15.2596
195.230,533,15.3615
195.732,533.5,15.4111
196.232,534,15.4559
196.711,534.5,15.4776
197.200,535,15.5110
197.687,535.5,15.5972
198.187,536,15.6632
198.684,536.5,15.7251
199.182,537,15.7572
199.675,537.5,15.8257
200.202,538,15.9189
200.687,538.5,15.9873
201.172,539,16.0597
201.680,539.5,16.1248
202.201,540,16.2246
202.695,540.5,16.3067
203.198,541,16.3772
203.698,541.5,16.4955
204.161,542,16.5834
204.666,542.5,16.6765
205.163,543,16.7803
205.663,543.5,16.8652
206.151,544,16.9285
206.661,544.5,17.0156
207.180,545,17.0722
207.671,545.5,17.1796
208.164,546,17.2764
208.669,546.5,17.3525
209.169,547,17.4520
209.649,547.5,17.5877
210.168,548,17.7301
210.682,548.5,17.8680
211.188,549,17.9998
211.673,549.5,18.1201
212.180,550,18.2307
212.691,550.5,18.3640
213.168,551,18.5028
213.668,551.5,18.6179
214.158,552,18.7446
214.681,552.5,18.9136
215.163,553,19.0620
215.661,553.5,19.2441
216.169,554,19.3990
216.677,554.5,19.6098
217.173,555,19.8332
217.696,555.5,19.9976
218.186,556,20.1766
218.666,556.5,20.3563
219.163,557,20.5696
219.662,557.5,20.7729
220.161,558,20.9589
220.658,558.5,21.1533
221.143,559,21.3541
221.640,559.5,21.5540
222.168,560,21.8134
222.648,560.5,22.0310
223.138,561,22.2396
223.646,561.5,22.4856
224.151,562,22.7502
224.660,562.5,23.0008
225.163,563,23.2050
225.648,563.5,23.4523
226.155,564,23.7281
226.660,564.5,23.9553
227.120,565,24.2143
227.637,565.5,24.4978
228.131,566,24.7329
228.635,566.5,25.0284
229.161,567,25.3446
229.647,567.5,25.6244
230.145,568,25.9152
230.625,568.5,26.2071
231.150,569,26.4745
231.647,569.5,26.7884
232.135,570,27.1041
232.655,570.5,27.4095
233.184,571,27.6785
233.692,571.5,27.9777
234.182,572,28.2801
234.686,572.5,28.6285
235.187,573,28.9439
235.704,573.5,29.2462
236.200,574,29.5599
236.692,574.5,29.8675
237.182,575,30.2111
237.670,575.5,30.5675
238.164,576,30.9207
238.647,576.5,31.2651
239.153,577,31.6334
239.645,577.5,32.0061
240.134,578,32.3836
240.629,578.5,32.7375
241.130,579,33.0844
241.641,579.5,33.5160
242.147,580,33.9206
242.656,580.5,34.3318
243.153,581,34.7036
243.651,581.5,35.0927
244.165,582,35.4708
244.661,582.5,35.8774
245.177,583,36.3168
245.673,583.5,36.7307
246.177,584,37.1690
246.678,584.5,37.6169
247.185,585,38.0672
247.695,585.5,38.5298
248.174,586,38.9655
248.668,586.5,39.4165
249.180,587,39.8648
249.673,587.5,40.2864
250.169,588,40.7529
250.669,588.5,41.2480
251.160,589,41.7440
251.669,589.5,42.2349
252.183,590,42.7640
252.683,590.5,43.2647
253.181,591,43.7458
253.667,591.5,44.2476
254.167,592,44.7597
254.697,592.5,45.2767
255.210,593,45.8199
255.707,593.5,46.3364
256.210,594,46.8397
256.705,594.5,47.3885
257.221,595,47.9447
257.712,595.5,48.4638
258.203,596,49.0073
258.686,596.5,49.5366
259.171,597,50.0354
259.685,597.5,50.5837
260.188,598,51.1529
260.699,598.5,51.7290
261.187,599,52.2802
261.677,599.5,52.8598
262.182,600,53.4341
262.696,600.5,54.0245
263.204,601,54.6322
263.707,601.5,55.2231
264.201,602,55.7753
264.692,602.5,56.3574
265.188,603,56.9422
265.705,603.5,57.5355
266.191,604,58.1196
266.695,604.5,58.7306
267.216,605,59.3430
267.710,605.5,59.9539
268.213,606,60.5636
268.704,606.5,61.1483
269.183,607,61.7092
269.690,607.5,62.3306
270.201,608,62.9655
270.720,608.5,63.5727
271.220,609,64.1939
271.693,609.5,64.7660
272.193,610,65.3276
272.713,610.5,65.9335
273.216,611,66.5140
273.728,611.5,67.1108
274.235,612,67.6802
274.724,612.5,68.2253
275.213,613,68.7909
275.733,613.5,69.3689
276.250,614,69.9735
276.743,614.5,70.5596
277.244,615,71.1314
277.736,615.5,71.6716
278.234,616,72.2281
278.741,616.5,72.8107
279.234,617,73.3775
279.730,617.5,73.9448
280.227,618,74.4920
280.727,618.5,75.0216
281.231,619,75.5784
281.721,619.5,76.1417
282.214,620,76.6987
282.714,620.5,77.2425
283.234,621,77.8054
283.735,621.5,78.3547
284.239,622,78.8695
284.748,622.5,79.3809
285.245,623,79.8993
285.736,623.5,80.4071
286.238,624,80.9051
286.742,624.5,81.4309
287.238,625,81.9417
287.744,625.5,82.4465
288.233,626,82.9333
288.730,626.5,83.4291
289.250,627,83.9490
289.750,627.5,84.4362
290.247,628,84.9310
290.750,628.5,85.4027
291.257,629,85.8932
291.754,629.5,86.3641
292.247,630,86.8062
292.760,630.5,87.3107
293.274,631,87.8122
293.774,631.5,88.2922
294.261,632,88.7870
294.756,632.5,89.2654
295.258,633,89.7720
295.754,633.5,90.2915
296.255,634,90.7843
296.760,634.5,91.2745
297.258,635,91.7927
297.746,635.5,92.3040
298.260,636,92.8349
298.770,636.5,93.3979
299.271,637,93.9120
299.774,637.5,94.4201
300.269,638,94.9501
300.778,638.5,95.4979
301.278,639,96.0793
301.777,639.5,96.6147
302.283,640,97.1291
302.791,640.5,97.7269
303.282,641,98.3358
303.766,641.5,98.9200
304.258,642,99.4891
304.748,642.5,100.1043
305.247,643,100.7598
305.755,643.5,101.4037
306.261,644,102.0582
306.770,644.5,102.7360
307.275,645,103.4522
307.779,645.5,104.1875
308.263,646,104.8717
308.755,646.5,105.5759
309.261,647,106.3707
309.761,647.5,107.1523
310.268,648,107.9364
310.778,648.5,108.7881
311.299,649,109.6728
311.796,649.5,110.4845
312.301,650,111.3398
312.825,650.5,112.2490
313.327,651,113.1123
313.828,651.5,114.0172
314.337,652,114.9637
314.822,652.5,115.8632
315.326,653,116.8098
315.832,653.5,117.8151
316.346,654,118.7769
316.851,654.5,119.7165
317.344,655,120.6653
317.849,655.5,121.6398
318.360,656,122.6154
318.827,656.5,123.5598
319.333,657,124.5495
319.851,657.5,125.5396
320.362,658,126.5150
320.856,658.5,127.4538
321.351,659,128.3701
321.869,659.5,129.3789
322.375,660,130.2976
322.865,660.5,131.1682
323.387,661,132.0571
323.875,661.5,132.9054
324.370,662,133.6636
324.874,662.5,134.4134
325.384,663,135.1821
325.883,663.5,135.8924
326.389,664,136.5600
326.888,664.5,137.1751
327.389,665,137.6916
327.915,665.5,138.2423
328.398,666,138.6611
328.896,666.5,139.0561
329.399,667,139.3530
329.926,667.5,139.5577
330.428,668,139.6524
330.927,668.5,139.6823
331.450,669,139.6408
331.910,669.5,139.4592
332.456,670,139.1428
332.926,670.5,138.8255
333.449,671,138.3062
333.968,671.5,137.6720
334.454,672,136.8696
334.956,672.5,136.0092
335.459,673,135.0132
335.964,673.5,133.8433
336.459,674,132.5208
336.962,674.5,131.0765
337.453,675,129.5134
337.945,675.5,127.8040
338.440,676,125.9224
338.941,676.5,123.8626
339.425,677,121.7565
339.942,677.5,119.3463
340.427,678,116.9530
340.944,678.5,114.2396
341.453,679,111.4379
341.928,679.5,108.6755
342.417,680,105.7745
342.919,680.5,102.6811
343.418,681,99.4736
343.897,681.5,96.3246
344.388,682,93.0655
344.868,682.5,89.7811
345.364,683,86.3968
345.876,683.5,82.8457
346.364,684,79.4827
346.854,684.5,76.1478
347.338,685,72.8772
347.827,685.5,69.5882
348.309,686,66.4520
348.809,686.5,63.2624
349.312,687,60.1579
349.780,687.5,57.3854
350.279,688,54.4971
350.776,688.5,51.7627
351.251,689,49.3071
351.737,689.5,46.9187
352.236,690,44.5981
352.740,690.5,42.4310
353.238,691,40.4515
353.725,691.5,38.6196
354.217,692,36.8802
354.711,692.5,35.2708
355.196,693,33.8191
355.706,693.5,32.4075
356.179,694,31.2435
356.632,694.5,30.1986
357.119,695,29.1320
357.630,695.5,28.1460
358.120,696,27.2829
358.611,696.5,26.5365
359.103,697,25.8631
359.612,697.5,25.2004
360.087,698,24.6393
360.606,698.5,24.0421
361.099,699,23.5116
361.573,699.5,23.0494
362.070,700,22.5841
362.556,700.5,22.1547
363.069,701,21.7412
363.590,701.5,21.3267
364.061,702,20.9784
364.569,702.5,20.6876
365.053,703,20.3676
365.574,703.5,20.0440
366.074,704,19.7226
366.570,704.5,19.4256
367.055,705,19.0542
367.562,705.5,18.7299
368.024,706,18.4520
368.546,706.5,18.1397
369.046,707,17.8334
369.544,707.5,17.5757
370.048,708,17.3399
370.557,708.5,17.0995
371.071,709,16.8439
371.582,709.5,16.5587
372.075,710,16.3297
372.577,710.5,16.1489
373.075,711,15.8909
373.594,711.5,15.6598
374.084,712,15.4611
374.586,712.5,15.2761
375.089,713,15.0836
375.603,713.5,14.8610
376.111,714,14.6541
376.576,714.5,14.4484
377.095,715,14.2879
377.612,715.5,14.1203
378.095,716,13.9726
378.594,716.5,13.8029
379.096,717,13.6299
379.602,717.5,13.4463
380.106,718,13.2633
380.614,718.5,13.0644
381.112,719,12.8988
381.619,719.5,12.7972
382.117,720,12.6429
382.620,720.5,12.4823
383.104,721,12.3655
383.618,721.5,12.2404
384.122,722,12.1083
384.631,722.5,11.9583
385.137,723,11.8204
385.618,723.5,11.6823
386.118,724,11.5134
386.605,724.5,11.3480
387.105,725,11.1992
387.621,725.5,11.0452
388.123,726,10.9082
388.626,726.5,10.8121
389.108,727,10.7058
389.644,727.5,10.5964
390.147,728,10.4789
390.646,728.5,10.3976
391.126,729,10.3058
391.647,729.5,10.1481
392.145,730,10.0036
392.655,730.5,9.9157
393.160,731,9.8020
393.656,731.5,9.6610
394.144,732,9.5453
394.667,732.5,9.4162
395.168,733,9.2809
395.668,733.5,9.1627
396.141,734,9.0490
396.668,734.5,8.9210
397.170,735,8.7869
397.674,735.5,8.6652
398.180,736,8.5410
398.678,736.5,8.4258
399.172,737,8.2916
399.685,737.5,8.1263
400.191,738,8.0039
400.684,738.5,7.9427
401.172,739,7.8433
401.659,739.5,7.7234
402.172,740,7.6111
402.682,740.5,7.5111
403.183,741,7.4162
403.690,741.5,7.2946
404.194,742,7.1702
404.695,742.5,7.0462
405.179,743,6.9375
405.701,743.5,6.8245
406.191,744,6.7146
406.669,744.5,6.6214
407.177,745,6.5502
407.700,745.5,6.4349
408.201,746,6.2925
408.671,746.5,6.2297
409.185,747,6.1429
409.714,747.5,6.0621
410.217,748,6.0004
410.693,748.5,5.9145
411.196,749,5.8114
411.716,749.5,5.7140
412.233,750,5.5996
412.733,750.5,5.5296
413.223,751,5.4789
413.729,751.5,5.3957
414.233,752,5.3172
414.738,752.5,5.2201
415.249,753,5.1041
415.753,753.5,4.9494
416.257,754,4.8058
416.760,754.5,4.7191
417.250,755,4.6421
417.742,755.5,4.5707
418.245,756,4.5283
418.751,756.5,4.4822
419.256,757,4.4084
419.761,757.5,4.3253
420.265,758,4.2461
420.761,758.5,4.1976
421.271,759,4.1497
421.768,759.5,4.0393
422.262,760,3.9600
422.763,760.5,3.8928
423.260,761,3.8097
423.781,761.5,3.7684
424.280,762,3.7323
424.762,762.5,3.6768
425.267,763,3.6308
425.788,763.5,3.5470
426.289,764,3.4775
426.782,764.5,3.4160
427.297,765,3.3589
427.796,765.5,3.3168
428.293,766,3.2445
428.810,766.5,3.2366
429.313,767,3.1904
429.811,767.5,3.1422
430.305,768,3.0738
430.822,768.5,3.0127
431.324,769,2.9567
431.836,769.5,2.8750
432.343,770,2.8185
432.850,770.5,2.7733
433.331,771,2.7190
433.817,771.5,2.6558
434.351,772,2.5969
434.855,772.5,2.5630
435.339,773,2.5212
435.871,773.5,2.4984
436.365,774,2.4559
436.852,774.5,2.4192
437.365,775,2.3822
437.845,775.5,2.3450
438.357,776,2.2765
438.858,776.5,2.2639
439.361,777,2.2094
439.855,777.5,2.1890
440.368,778,2.2002
440.886,778.5,2.1243
441.390,779,2.0510
441.894,779.5,2.0102
442.387,780,1.9797
442.884,780.5,1.9092
443.379,781,1.8802
443.882,781.5,1.8480
444.393,782,1.8611
444.863,782.5,1.8396
445.369,783,1.7754
445.869,783.5,1.7401
446.377,784,1.6884
446.874,784.5,1.6668
447.352,785,1.6428
447.841,785.5,1.6085
448.336,786,1.6157
448.829,786.5,1.5973
449.322,787,1.5400
449.837,787.5,1.4798
450.331,788,1.4385
450.835,788.5,1.4091
451.343,789,1.3965
451.847,789.5,1.3830
452.333,790,1.3327
452.853,790.5,1.2960
453.386,791,1.2532
453.868,791.5,1.2248
454.351,792,1.2250
454.852,792.5,1.2144
455.350,793,1.2076
455.861,793.5,1.1711
456.375,794,1.1567
456.856,794.5,1.1325
457.353,795,1.1264
457.840,795.5,1.1043
458.339,796,1.0859
458.859,796.5,1.0273
459.389,797,1.0097
459.876,797.5,1.0028
460.370,798,1.0129
460.866,798.5,0.9575
461.369,799,0.8871
461.867,799.5,0.8724
462.367,800,0.8889
462.876,800.5,0.8601
463.373,801,0.8535
463.857,801.5,0.8689
464.356,802,0.8618
464.859,802.5,0.8584
465.362,803,0.8188
465.859,803.5,0.7806
466.368,804,0.7565
466.883,804.5,0.7636
467.358,805,0.7927
467.873,805.5,0.7761
468.367,806,0.7718
468.865,806.5,0.7861
469.365,807,0.7561
469.851,807.5,0.7358
470.345,808,0.7329
470.866,808.5,0.7113
471.378,809,0.6969
471.863,809.5,0.6617
472.380,810,0.6442
472.906,810.5,0.6291
473.395,811,0.6358
473.883,811.5,0.6571
474.379,812,0.6336
474.889,812.5,0.6223
475.427,813,0.5896
475.926,813.5,0.5760
476.414,814,0.5468
476.898,814.5,0.5454
477.390,815,0.5547
477.897,815.5,0.5383
478.415,816,0.5587
478.903,816.5,0.5805
479.396,817,0.5199
479.899,817.5,0.5009
480.411,818,0.4811
480.908,818.5,0.4398
481.401,819,0.4359
481.904,819.5,0.4188
482.418,820,0.4676
482.904,820.5,0.4203
483.407,821,0.4363
483.889,821.5,0.4451
484.407,822,0.4152
484.910,822.5,0.3693
485.425,823,0.3391
485.941,823.5,0.3508
486.424,824,0.3101
486.922,824.5,0.3097
487.415,825,0.2866
487.913,825.5,0.2747
488.425,826,0.2814
488.908,826.5,0.3038
489.399,827,0.3058
489.915,827.5,0.3280
490.400,828,0.3364
490.899,828.5,0.3458
491.442,829,0.3547
491.910,829.5,0.3553
492.445,830,0.3673
492.919,830.5,0.3887
493.432,831,0.3922
493.944,831.5,0.3706
494.417,832,0.3809
494.954,832.5,0.3696
495.427,833,0.3961
495.939,833.5,0.3567
496.430,834,0.3022
496.959,834.5,0.2866
497.461,835,0.2949
497.941,835.5,0.2928
498.431,836,0.2594
498.955,836.5,0.2393
499.444,837,0.2491
499.919,837.5,0.2285
500.449,838,0.2429
500.931,838.5,0.2655
501.435,839,0.2746
501.954,839.5,0.2426
502.460,840,0.2519
502.947,840.5,0.2546
503.438,841,0.2248
503.951,841.5,0.2348
504.442,842,0.2221
504.948,842.5,0.1895
505.445,843,0.1653
505.949,843.5,0.1832
506.424,844,0.1608
506.925,844.5,0.1622
507.443,845,0.1816
507.952,845.5,0.1585
508.466,846,0.1528
508.953,846.5,0.1198
509.446,847,0.0914
509.922,847.5,0.0975
510.454,848,0.1354
510.928,848.5,0.1047
511.432,849,0.1083
511.930,849.5,0.1561
512.420,850,0.1409
512.935,850.5,0.1033
513.455,851,0.1210
513.934,851.5,0.0884
514.434,852,0.0857
514.955,852.5,0.0878
515.442,853,0.0570
515.944,853.5,0.0670
516.450,854,0.0579
516.942,854.5,0.0337
517.429,855,0.0538
517.951,855.5,0.0638
518.460,856,0.0543
518.964,856.5,0.0571
519.465,857,0.0713
519.953,857.5,0.0560
520.470,858,0.0899
520.950,858.5,0.0508
521.458,859,0.0141
521.966,859.5,0.0596
522.457,860,0.0421
522.939,860.5,0.0613
523.443,861,0.0323
523.942,861.5,0.0680
524.467,862,0.0797
524.945,862.5,0.0704
525.460,863,0.0213
525.952,863.5,-0.0198
526.422,864,0.0169
526.953,864.5,-0.0174
527.488,865,-0.0354
527.957,865.5,-0.0146
528.432,866,-0.0074
528.939,866.5,-0.0618
529.452,867,-0.0532
529.919,867.5,-0.0866
530.481,868,-0.0693
530.977,868.5,-0.0578
531.472,869,-0.0468
531.949,869.5,-0.0577
532.423,870,-0.0835
532.927,870.5,-0.0631
533.452,871,-0.0751
533.956,871.5,-0.1104
534.469,872,-0.0892
534.964,872.5,-0.0671
535.437,873,-0.0819
535.943,873.5,-0.1258
536.450,874,-0.1148
536.938,874.5,-0.1190
537.439,875,-0.1040
537.930,875.5,-0.0818
538.425,876,-0.0793
538.920,876.5,-0.0616
539.442,877,-0.1023
539.940,877.5,-0.1669
540.447,878,-0.1408
540.919,878.5,-0.1416
541.443,879,-0.1220
541.952,879.5,-0.0794
542.424,880,-0.1471
542.939,880.5,-0.1598
543.446,881,-0.1400
543.981,881.5,-0.1509
544.437,882,-0.1555
544.900,882.5,-0.1375
545.420,883,-0.1638
545.939,883.5,-0.1344
546.460,884,-0.1652
546.938,884.5,-0.1138
547.456,885,-0.0967
547.947,885.5,-0.1313
548.429,886,-0.1138
548.923,886.5,-0.1252
549.447,887,-0.1349
549.963,887.5,-0.1355
550.458,888,-0.1407
550.926,888.5,-0.1647
551.423,889,-0.1474
551.915,889.5,-0.1632
552.443,890,-0.1635
552.935,890.5,-0.1392
553.418,891,-0.1462
553.967,891.5,-0.1500
554.446,892,-0.1614
554.928,892.5,-0.1556
555.401,893,-0.1669
555.950,893.5,-0.1230
