Time (s),Temperature (K),Weight (mg)
0,383.15,5.006
1,383.15,5.006
2,383.15,5.006
3,383.15,5.006
4,383.15,5.006
5,383.15,5.006
6,383.15,5.006
7,383.15,5.006
8,383.15,5.006
9,383.16,5.006
10,383.18,5.007
11,383.26,5.007
12,383.36,5.007
13,383.46,5.007
14,383.59,5.007
15,383.74,5.007
16,383.86,5.007
17,383.99,5.007
18,384.13,5.007
19,384.27,5.007
20,384.40,5.007
21,384.54,5.007
22,384.68,5.007
23,384.82,5.008
24,384.96,5.008
25,385.10,5.008
26,385.24,5.008
27,385.38,5.008
28,385.53,5.008
29,385.66,5.008
30,385.81,5.008
31,385.95,5.008
32,386.10,5.008
33,386.26,5.008
34,386.40,5.008
35,386.55,5.008
36,386.70,5.008
37,386.84,5.008
38,386.99,5.008
39,387.15,5.008
40,387.30,5.008
41,387.45,5.008
42,387.60,5.008
43,387.76,5.008
44,387.91,5.008
45,388.06,5.008
46,388.22,5.008
47,388.37,5.008
48,388.53,5.008
49,388.69,5.008
50,388.84,5.008
51,389.00,5.008
52,389.15,5.008
53,389.31,5.008
54,389.47,5.008
55,389.63,5.008
56,389.79,5.008
57,389.94,5.008
58,390.11,5.008
59,390.27,5.008
60,390.43,5.008
61,390.59,5.008
62,390.75,5.008
63,390.91,5.008
64,391.07,5.008
65,391.22,5.008
66,391.39,5.008
67,391.55,5.008
68,391.72,5.008
69,391.88,5.008
70,392.04,5.008
71,392.20,5.008
72,392.36,5.008
73,392.52,5.008
74,392.69,5.008
75,392.85,5.008
76,393.02,5.008
77,393.18,5.008
78,393.35,5.008
79,393.51,5.008
80,393.67,5.007
81,393.84,5.007
82,394.01,5.007
83,394.17,5.007
84,394.34,5.007
85,394.50,5.007
86,394.66,5.007
87,394.82,5.007
88,394.99,5.007
89,395.16,5.007
90,395.32,5.007
91,395.49,5.007
92,395.65,5.007
93,395.82,5.007
94,395.99,5.007
95,396.15,5.007
96,396.31,5.007
97,396.48,5.007
98,396.65,5.007
99,396.81,5.007
100,396.98,5.007
101,397.15,5.007
102,397.31,5.007
103,397.48,5.007
104,397.65,5.007
105,397.81,5.007
106,397.98,5.007
107,398.15,5.007
108,398.31,5.007
109,398.47,5.007
110,398.64,5.007
111,398.81,5.007
112,398.98,5.007
113,399.15,5.007
114,399.31,5.007
115,399.48,5.007
116,399.64,5.007
117,399.81,5.007
118,399.98,5.007
119,400.15,5.007
120,400.31,5.007
121,400.48,5.007
122,400.65,5.007
123,400.81,5.007
124,400.98,5.007
125,401.14,5.007
126,401.31,5.007
127,401.48,5.007
128,401.65,5.007
129,401.82,5.007
130,401.98,5.007
131,402.15,5.007
132,402.32,5.007
133,402.48,5.007
134,402.65,5.007
135,402.82,5.007
136,402.99,5.007
137,403.16,5.007
138,403.31,5.007
139,403.48,5.007
140,403.65,5.007
141,403.82,5.007
142,403.99,5.007
143,404.16,5.006
144,404.33,5.006
145,404.50,5.006
146,404.66,5.006
147,404.83,5.006
148,404.99,5.006
149,405.15,5.006
150,405.33,5.006
151,405.50,5.006
152,405.67,5.006
153,405.83,5.006
154,405.99,5.006
155,406.16,5.006
156,406.33,5.006
157,406.50,5.006
158,406.67,5.006
159,406.84,5.006
160,407.01,5.006
161,407.17,5.006
162,407.34,5.006
163,407.51,5.006
164,407.68,5.006
165,407.84,5.006
166,408.01,5.006
167,408.18,5.006
168,408.34,5.006
169,408.51,5.006
170,408.68,5.006
171,408.85,5.006
172,409.02,5.006
173,409.19,5.006
174,409.36,5.006
175,409.52,5.006
176,409.69,5.006
177,409.85,5.006
178,410.02,5.006
179,410.19,5.006
180,410.36,5.006
181,410.53,5.006
182,410.70,5.006
183,410.86,5.005
184,411.03,5.005
185,411.20,5.005
186,411.37,5.005
187,411.53,5.005
188,411.70,5.005
189,411.86,5.005
190,412.03,5.005
191,412.20,5.005
192,412.38,5.005
193,412.55,5.005
194,412.71,5.005
195,412.87,5.005
196,413.03,5.005
197,413.20,5.005
198,413.37,5.005
199,413.54,5.005
200,413.72,5.005
201,413.89,5.005
202,414.05,5.005
203,414.21,5.005
204,414.38,5.005
205,414.55,5.005
206,414.72,5.005
207,414.89,5.005
208,415.05,5.005
209,415.22,5.005
210,415.39,5.005
211,415.56,5.004
212,415.72,5.004
213,415.89,5.004
214,416.06,5.004
215,416.23,5.004
216,416.40,5.004
217,416.57,5.004
218,416.74,5.004
219,416.90,5.004
220,417.06,5.004
221,417.23,5.004
222,417.40,5.004
223,417.57,5.004
224,417.74,5.004
225,417.91,5.004
226,418.08,5.004
227,418.25,5.004
228,418.41,5.004
229,418.57,5.004
230,418.74,5.004
231,418.92,5.004
232,419.09,5.004
233,419.25,5.004
234,419.42,5.003
235,419.58,5.003
236,419.75,5.003
237,419.92,5.003
238,420.10,5.003
239,420.27,5.003
240,420.43,5.003
241,420.59,5.003
242,420.76,5.003
243,420.93,5.003
244,421.09,5.003
245,421.26,5.003
246,421.43,5.003
247,421.60,5.003
248,421.77,5.003
249,421.93,5.003
250,422.10,5.003
251,422.27,5.003
252,422.43,5.003
253,422.60,5.002
254,422.77,5.002
255,422.94,5.002
256,423.11,5.002
257,423.28,5.002
258,423.45,5.002
259,423.61,5.002
260,423.78,5.002
261,423.95,5.002
262,424.12,5.002
263,424.28,5.002
264,424.45,5.002
265,424.62,5.002
266,424.79,5.002
267,424.96,5.002
268,425.12,5.002
269,425.29,5.001
270,425.46,5.001
271,425.63,5.001
272,425.80,5.001
273,425.96,5.001
274,426.13,5.001
275,426.30,5.001
276,426.47,5.001
277,426.63,5.001
278,426.81,5.001
279,426.97,5.001
280,427.14,5.001
281,427.31,5.001
282,427.47,5.001
283,427.64,5.001
284,427.80,5.000
285,427.98,5.000
286,428.15,5.000
287,428.31,5.000
288,428.47,5.000
289,428.64,5.000
290,428.81,5.000
291,428.98,5.000
292,429.15,5.000
293,429.31,5.000
294,429.48,5.000
295,429.65,5.000
296,429.82,5.000
297,429.99,4.999
298,430.15,4.999
299,430.31,4.999
300,430.49,4.999
301,430.65,4.999
302,430.82,4.999
303,430.98,4.999
304,431.16,4.999
305,431.32,4.999
306,431.49,4.999
307,431.66,4.999
308,431.82,4.999
309,431.99,4.998
310,432.16,4.998
311,432.32,4.998
312,432.49,4.998
313,432.66,4.998
314,432.83,4.998
315,432.99,4.998
316,433.16,4.998
317,433.33,4.998
318,433.50,4.998
319,433.67,4.998
320,433.83,4.997
321,434.00,4.997
322,434.16,4.997
323,434.33,4.997
324,434.50,4.997
325,434.67,4.997
326,434.84,4.997
327,435.01,4.997
328,435.17,4.997
329,435.34,4.997
330,435.50,4.997
331,435.67,4.996
332,435.84,4.996
333,436.01,4.996
334,436.18,4.996
335,436.35,4.996
336,436.51,4.996
337,436.68,4.996
338,436.84,4.996
339,437.00,4.996
340,437.18,4.995
341,437.35,4.995
342,437.52,4.995
343,437.69,4.995
344,437.86,4.995
345,438.01,4.995
346,438.18,4.995
347,438.34,4.995
348,438.51,4.995
349,438.68,4.995
350,438.86,4.994
351,439.02,4.994
352,439.19,4.994
353,439.36,4.994
354,439.52,4.994
355,439.68,4.994
356,439.85,4.994
357,440.02,4.994
358,440.20,4.994
359,440.36,4.994
360,440.52,4.993
361,440.69,4.993
362,440.86,4.993
363,441.03,4.993
364,441.19,4.993
365,441.36,4.993
366,441.53,4.993
367,441.70,4.993
368,441.87,4.992
369,442.03,4.992
370,442.19,4.992
371,442.36,4.992
372,442.54,4.992
373,442.71,4.992
374,442.87,4.992
375,443.03,4.992
376,443.20,4.992
377,443.36,4.991
378,443.53,4.991
379,443.70,4.991
380,443.88,4.991
381,444.04,4.991
382,444.21,4.991
383,444.37,4.991
384,444.54,4.991
385,444.70,4.990
386,444.88,4.990
387,445.05,4.990
388,445.22,4.990
389,445.38,4.990
390,445.55,4.990
391,445.71,4.990
392,445.88,4.989
393,446.05,4.989
394,446.22,4.989
395,446.39,4.989
396,446.55,4.989
397,446.72,4.989
398,446.88,4.989
399,447.05,4.988
400,447.22,4.988
401,447.39,4.988
402,447.56,4.988
403,447.73,4.988
404,447.89,4.988
405,448.06,4.988
406,448.22,4.987
407,448.39,4.987
408,448.56,4.987
409,448.73,4.987
410,448.89,4.987
411,449.06,4.987
412,449.23,4.987
413,449.39,4.986
414,449.56,4.986
415,449.73,4.986
416,449.90,4.986
417,450.07,4.986
418,450.23,4.986
419,450.40,4.985
420,450.57,4.985
421,450.73,4.985
422,450.89,4.985
423,451.06,4.985
424,451.24,4.985
425,451.41,4.984
426,451.57,4.984
427,451.74,4.984
428,451.90,4.984
429,452.07,4.984
430,452.24,4.984
431,452.41,4.983
432,452.58,4.983
433,452.74,4.983
434,452.91,4.983
435,453.07,4.983
436,453.24,4.982
437,453.41,4.982
438,453.58,4.982
439,453.75,4.982
440,453.91,4.982
441,454.08,4.981
442,454.24,4.981
443,454.41,4.981
444,454.58,4.981
445,454.75,4.981
446,454.92,4.981
447,455.09,4.980
448,455.25,4.980
449,455.42,4.980
450,455.58,4.980
451,455.76,4.980
452,455.93,4.979
453,456.09,4.979
454,456.25,4.979
455,456.42,4.979
456,456.59,4.979
457,456.76,4.978
458,456.93,4.978
459,457.09,4.978
460,457.25,4.978
461,457.43,4.978
462,457.60,4.977
463,457.76,4.977
464,457.93,4.977
465,458.10,4.977
466,458.26,4.976
467,458.43,4.976
468,458.59,4.976
469,458.77,4.976
470,458.94,4.976
471,459.10,4.975
472,459.27,4.975
473,459.43,4.975
474,459.60,4.975
475,459.77,4.974
476,459.94,4.974
477,460.11,4.974
478,460.27,4.974
479,460.44,4.974
480,460.60,4.973
481,460.77,4.973
482,460.94,4.973
483,461.11,4.973
484,461.27,4.972
485,461.44,4.972
486,461.61,4.972
487,461.78,4.972
488,461.94,4.971
489,462.11,4.971
490,462.28,4.971
491,462.45,4.971
492,462.62,4.970
493,462.78,4.970
494,462.95,4.970
495,463.11,4.970
496,463.28,4.969
497,463.45,4.969
498,463.62,4.969
499,463.79,4.969
500,463.95,4.969
501,464.11,4.968
502,464.28,4.968
503,464.45,4.968
504,464.63,4.967
505,464.80,4.967
506,464.96,4.967
507,465.13,4.967
508,465.29,4.966
509,465.45,4.966
510,465.62,4.966
511,465.79,4.966
512,465.97,4.965
513,466.13,4.965
514,466.30,4.965
515,466.46,4.965
516,466.62,4.964
517,466.79,4.964
518,466.97,4.964
519,467.14,4.964
520,467.30,4.963
521,467.46,4.963
522,467.63,4.963
523,467.79,4.962
524,467.96,4.962
525,468.14,4.962
526,468.31,4.962
527,468.48,4.961
528,468.64,4.961
529,468.80,4.961
530,468.97,4.960
531,469.14,4.960
532,469.31,4.960
533,469.47,4.960
534,469.64,4.959
535,469.81,4.959
536,469.98,4.959
537,470.15,4.958
538,470.31,4.958
539,470.48,4.958
540,470.64,4.957
541,470.81,4.957
542,470.98,4.957
543,471.15,4.957
544,471.32,4.956
545,471.48,4.956
546,471.65,4.956
547,471.82,4.955
548,471.98,4.955
549,472.15,4.955
550,472.32,4.954
551,472.49,4.954
552,472.66,4.954
553,472.82,4.953
554,472.99,4.953
555,473.15,4.953
556,473.32,4.953
557,473.49,4.952
558,473.66,4.952
559,473.83,4.952
560,473.99,4.951
561,474.16,4.951
562,474.32,4.951
563,474.49,4.950
564,474.66,4.950
565,474.83,4.950
566,475.00,4.949
567,475.17,4.949
568,475.33,4.949
569,475.49,4.948
570,475.66,4.948
571,475.83,4.947
572,476.00,4.947
573,476.17,4.947
574,476.33,4.946
575,476.50,4.946
576,476.67,4.946
577,476.83,4.945
578,477.00,4.945
579,477.17,4.945
580,477.34,4.944
581,477.51,4.944
582,477.68,4.944
583,477.84,4.943
584,478.01,4.943
585,478.18,4.943
586,478.34,4.942
587,478.51,4.942
588,478.68,4.941
589,478.85,4.941
590,479.02,4.941
591,479.18,4.940
592,479.35,4.940
593,479.51,4.940
594,479.68,4.939
595,479.85,4.939
596,480.02,4.938
597,480.19,4.938
598,480.35,4.938
599,480.51,4.937
600,480.69,4.937
601,480.85,4.937
602,481.02,4.936
603,481.19,4.936
604,481.36,4.935
605,481.53,4.935
606,481.69,4.935
607,481.86,4.934
608,482.02,4.934
609,482.19,4.933
610,482.36,4.933
611,482.53,4.933
612,482.69,4.932
613,482.86,4.932
614,483.03,4.931
615,483.20,4.931
616,483.36,4.931
617,483.53,4.930
618,483.70,4.930
619,483.86,4.929
620,484.03,4.929
621,484.20,4.929
622,484.36,4.928
623,484.53,4.928
624,484.70,4.927
625,484.87,4.927
626,485.03,4.926
627,485.20,4.926
628,485.37,4.926
629,485.54,4.925
630,485.70,4.925
631,485.87,4.924
632,486.04,4.924
633,486.20,4.923
634,486.37,4.923
635,486.53,4.922
636,486.71,4.922
637,486.88,4.922
638,487.05,4.921
639,487.21,4.921
640,487.38,4.920
641,487.55,4.920
642,487.71,4.919
643,487.88,4.919
644,488.05,4.918
645,488.22,4.918
646,488.38,4.917
647,488.55,4.917
648,488.72,4.916
649,488.88,4.915
650,489.05,4.915
651,489.22,4.914
652,489.38,4.914
653,489.55,4.913
654,489.72,4.913
655,489.89,4.912
656,490.05,4.912
657,490.22,4.911
658,490.39,4.910
659,490.56,4.910
660,490.72,4.909
661,490.89,4.909
662,491.06,4.908
663,491.23,4.908
664,491.39,4.907
665,491.56,4.906
666,491.73,4.906
667,491.90,4.905
668,492.07,4.905
669,492.23,4.904
670,492.40,4.904
671,492.56,4.903
672,492.73,4.903
673,492.90,4.902
674,493.07,4.902
675,493.23,4.901
676,493.40,4.901
677,493.57,4.900
678,493.73,4.900
679,493.90,4.899
680,494.07,4.899
681,494.24,4.898
682,494.41,4.897
683,494.57,4.897
684,494.74,4.896
685,494.90,4.896
686,495.08,4.895
687,495.24,4.895
688,495.41,4.894
689,495.58,4.894
690,495.75,4.893
691,495.91,4.893
692,496.08,4.892
693,496.25,4.892
694,496.42,4.891
695,496.58,4.890
696,496.75,4.890
697,496.92,4.889
698,497.08,4.889
699,497.26,4.888
700,497.42,4.888
701,497.59,4.887
702,497.75,4.886
703,497.92,4.886
704,498.09,4.885
705,498.25,4.885
706,498.43,4.884
707,498.59,4.883
708,498.75,4.883
709,498.92,4.882
710,499.08,4.882
711,499.25,4.881
712,499.43,4.881
713,499.59,4.880
714,499.76,4.879
715,499.93,4.879
716,500.09,4.878
717,500.26,4.878
718,500.43,4.877
719,500.60,4.876
720,500.77,4.876
721,500.93,4.875
722,501.10,4.874
723,501.26,4.874
724,501.43,4.873
725,501.60,4.873
726,501.77,4.872
727,501.94,4.871
728,502.11,4.871
729,502.28,4.870
730,502.44,4.869
731,502.60,4.869
732,502.77,4.868
733,502.94,4.867
734,503.11,4.867
735,503.28,4.866
736,503.44,4.865
737,503.61,4.865
738,503.78,4.864
739,503.94,4.863
740,504.11,4.863
741,504.28,4.862
742,504.45,4.861
743,504.61,4.861
744,504.78,4.860
745,504.94,4.859
746,505.11,4.859
747,505.28,4.858
748,505.45,4.857
749,505.62,4.857
750,505.79,4.856
751,505.95,4.855
752,506.11,4.854
753,506.28,4.854
754,506.45,4.853
755,506.62,4.852
756,506.79,4.851
757,506.96,4.851
758,507.12,4.850
759,507.29,4.849
760,507.45,4.848
761,507.62,4.848
762,507.79,4.847
763,507.96,4.846
764,508.13,4.845
765,508.30,4.845
766,508.46,4.844
767,508.62,4.843
768,508.79,4.842
769,508.96,4.841
770,509.13,4.840
771,509.30,4.839
772,509.47,4.838
773,509.63,4.838
774,509.80,4.837
775,509.96,4.836
776,510.13,4.836
777,510.30,4.835
778,510.47,4.834
779,510.64,4.834
780,510.81,4.833
781,510.97,4.832
782,511.13,4.831
783,511.30,4.831
784,511.47,4.830
785,511.64,4.829
786,511.81,4.828
787,511.97,4.827
788,512.14,4.826
789,512.31,4.825
790,512.48,4.824
791,512.65,4.823
792,512.81,4.822
793,512.97,4.821
794,513.15,4.820
795,513.32,4.819
796,513.48,4.818
797,513.65,4.817
798,513.81,4.816
799,513.98,4.815
800,514.15,4.815
801,514.32,4.814
802,514.49,4.813
803,514.66,4.813
804,514.82,4.812
805,514.98,4.811
806,515.15,4.811
807,515.32,4.810
808,515.49,4.809
809,515.65,4.808
810,515.82,4.807
811,515.99,4.806
812,516.16,4.806
813,516.32,4.805
814,516.50,4.804
815,516.66,4.803
816,516.83,4.802
817,517.00,4.801
818,517.16,4.800
819,517.33,4.799
820,517.49,4.798
821,517.66,4.797
822,517.83,4.796
823,518.00,4.795
824,518.17,4.794
825,518.33,4.793
826,518.51,4.792
827,518.67,4.791
828,518.83,4.790
829,519.00,4.789
830,519.17,4.788
831,519.34,4.787
832,519.50,4.786
833,519.67,4.785
834,519.84,4.784
835,520.01,4.783
836,520.18,4.782
837,520.34,4.781
838,520.51,4.780
839,520.68,4.779
840,520.85,4.778
841,521.01,4.776
842,521.17,4.775
843,521.34,4.774
844,521.51,4.773
845,521.67,4.772
846,521.85,4.771
847,522.02,4.770
848,522.18,4.769
849,522.35,4.767
850,522.51,4.766
851,522.68,4.765
852,522.84,4.764
853,523.02,4.763
854,523.19,4.762
855,523.36,4.760
856,523.52,4.759
857,523.69,4.758
858,523.85,4.757
859,524.02,4.756
860,524.19,4.755
861,524.36,4.753
862,524.52,4.752
863,524.69,4.751
864,524.86,4.750
865,525.02,4.749
866,525.19,4.747
867,525.36,4.746
868,525.53,4.745
869,525.70,4.744
870,525.87,4.742
871,526.03,4.741
872,526.20,4.740
873,526.36,4.739
874,526.53,4.737
875,526.69,4.736
876,526.87,4.734
877,527.04,4.733
878,527.20,4.732
879,527.36,4.731
880,527.53,4.729
881,527.70,4.728
882,527.87,4.727
883,528.04,4.725
884,528.21,4.724
885,528.37,4.723
886,528.53,4.722
887,528.70,4.720
888,528.88,4.719
889,529.04,4.717
890,529.21,4.716
891,529.37,4.715
892,529.54,4.713
893,529.71,4.712
894,529.87,4.710
895,530.05,4.709
896,530.21,4.707
897,530.39,4.706
898,530.55,4.704
899,530.71,4.703
900,530.88,4.702
901,531.05,4.700
902,531.21,4.699
903,531.39,4.697
904,531.56,4.695
905,531.72,4.694
906,531.89,4.692
907,532.05,4.690
908,532.22,4.689
909,532.39,4.687
910,532.56,4.686
911,532.72,4.684
912,532.89,4.683
913,533.06,4.681
914,533.22,4.679
915,533.39,4.678
916,533.56,4.676
917,533.72,4.675
918,533.89,4.673
919,534.06,4.672
920,534.23,4.670
921,534.40,4.669
922,534.56,4.667
923,534.73,4.666
924,534.89,4.664
925,535.06,4.662
926,535.24,4.661
927,535.40,4.659
928,535.57,4.657
929,535.73,4.656
930,535.90,4.654
931,536.07,4.652
932,536.24,4.651
933,536.40,4.649
934,536.57,4.647
935,536.74,4.646
936,536.90,4.644
937,537.07,4.642
938,537.24,4.641
939,537.41,4.639
940,537.57,4.637
941,537.74,4.636
942,537.91,4.634
943,538.08,4.632
944,538.24,4.630
945,538.41,4.629
946,538.58,4.627
947,538.74,4.625
948,538.91,4.624
949,539.08,4.622
950,539.25,4.620
951,539.42,4.618
952,539.59,4.616
953,539.75,4.615
954,539.91,4.613
955,540.09,4.611
956,540.26,4.609
957,540.42,4.607
958,540.58,4.606
959,540.75,4.604
960,540.92,4.602
961,541.09,4.600
962,541.26,4.598
963,541.42,4.596
964,541.59,4.595
965,541.76,4.593
966,541.93,4.591
967,542.09,4.589
968,542.26,4.587
969,542.43,4.585
970,542.59,4.583
971,542.76,4.581
972,542.92,4.579
973,543.09,4.578
974,543.27,4.576
975,543.43,4.574
976,543.60,4.572
977,543.76,4.570
978,543.93,4.568
979,544.10,4.567
980,544.27,4.565
981,544.43,4.563
982,544.60,4.561
983,544.77,4.559
984,544.94,4.557
985,545.11,4.555
986,545.27,4.553
987,545.44,4.551
988,545.60,4.549
989,545.77,4.547
990,545.95,4.545
991,546.11,4.543
992,546.27,4.541
993,546.44,4.539
994,546.60,4.537
995,546.77,4.535
996,546.95,4.533
997,547.12,4.531
998,547.28,4.529
999,547.44,4.526
1000,547.61,4.524
1001,547.77,4.522
1002,547.95,4.520
1003,548.11,4.518
1004,548.28,4.516
1005,548.45,4.513
1006,548.62,4.511
1007,548.79,4.509
1008,548.95,4.507
1009,549.12,4.505
1010,549.29,4.502
1011,549.45,4.500
1012,549.62,4.498
1013,549.79,4.496
1014,549.96,4.494
1015,550.12,4.492
1016,550.29,4.489
1017,550.46,4.487
1018,550.63,4.485
1019,550.79,4.483
1020,550.96,4.481
1021,551.12,4.478
1022,551.29,4.476
1023,551.46,4.474
1024,551.63,4.472
1025,551.80,4.469
1026,551.96,4.467
1027,552.13,4.465
1028,552.31,4.463
1029,552.47,4.460
1030,552.63,4.458
1031,552.79,4.456
1032,552.96,4.454
1033,553.13,4.451
1034,553.31,4.449
1035,553.47,4.447
1036,553.64,4.445
1037,553.80,4.442
1038,553.97,4.440
1039,554.14,4.438
1040,554.31,4.435
1041,554.48,4.433
1042,554.64,4.431
1043,554.80,4.428
1044,554.97,4.426
1045,555.15,4.424
1046,555.31,4.421
1047,555.48,4.419
1048,555.64,4.416
1049,555.81,4.414
1050,555.97,4.411
1051,556.15,4.409
1052,556.32,4.407
1053,556.48,4.404
1054,556.65,4.402
1055,556.81,4.399
1056,556.98,4.397
1057,557.15,4.394
1058,557.32,4.392
1059,557.49,4.389
1060,557.65,4.387
1061,557.82,4.385
1062,557.99,4.382
1063,558.15,4.380
1064,558.32,4.377
1065,558.49,4.375
1066,558.66,4.372
1067,558.82,4.370
1068,558.99,4.367
1069,559.15,4.365
1070,559.32,4.362
1071,559.49,4.360
1072,559.66,4.357
1073,559.83,4.355
1074,559.99,4.352
1075,560.16,4.349
1076,560.33,4.347
1077,560.49,4.344
1078,560.66,4.342
1079,560.83,4.339
1080,561.00,4.336
1081,561.16,4.334
1082,561.33,4.331
1083,561.50,4.329
1084,561.67,4.326
1085,561.83,4.323
1086,562.00,4.321
1087,562.17,4.318
1088,562.34,4.315
1089,562.50,4.313
1090,562.67,4.310
1091,562.84,4.307
1092,563.00,4.305
1093,563.17,4.302
1094,563.34,4.299
1095,563.51,4.297
1096,563.68,4.294
1097,563.84,4.291
1098,564.01,4.288
1099,564.17,4.286
1100,564.34,4.283
1101,564.51,4.280
1102,564.68,4.277
1103,564.84,4.275
1104,565.01,4.272
1105,565.18,4.269
1106,565.35,4.266
1107,565.51,4.264
1108,565.68,4.261
1109,565.85,4.258
1110,566.02,4.255
1111,566.18,4.252
1112,566.35,4.249
1113,566.52,4.247
1114,566.69,4.244
1115,566.86,4.241
1116,567.02,4.238
1117,567.19,4.235
1118,567.36,4.232
1119,567.52,4.229
1120,567.69,4.226
1121,567.86,4.223
1122,568.03,4.221
1123,568.19,4.218
1124,568.36,4.215
1125,568.52,4.212
1126,568.69,4.209
1127,568.87,4.206
1128,569.03,4.203
1129,569.20,4.200
1130,569.36,4.197
1131,569.52,4.194
1132,569.70,4.191
1133,569.86,4.188
1134,570.03,4.185
1135,570.20,4.182
1136,570.36,4.179
1137,570.53,4.176
1138,570.70,4.173
1139,570.87,4.170
1140,571.04,4.167
1141,571.21,4.163
1142,571.37,4.160
1143,571.53,4.157
1144,571.70,4.154
1145,571.87,4.151
1146,572.05,4.148
1147,572.21,4.145
1148,572.38,4.142
1149,572.54,4.138
1150,572.71,4.135
1151,572.88,4.132
1152,573.05,4.129
1153,573.21,4.126
1154,573.38,4.123
1155,573.54,4.119
1156,573.71,4.116
1157,573.87,4.113
1158,574.05,4.110
1159,574.22,4.106
1160,574.38,4.103
1161,574.55,4.100
1162,574.72,4.097
1163,574.88,4.093
1164,575.05,4.090
1165,575.22,4.087
1166,575.38,4.083
1167,575.55,4.080
1168,575.72,4.077
1169,575.89,4.073
