Time (s),Temperature (K),Weight (mg)
0,383.15,4.877
1,383.15,4.877
2,383.15,4.877
3,383.15,4.877
4,383.15,4.877
5,383.15,4.877
6,383.15,4.877
7,383.15,4.877
8,383.15,4.877
9,383.15,4.877
10,383.18,4.877
11,383.20,4.877
12,383.24,4.877
13,383.30,4.877
14,383.36,4.877
15,383.42,4.877
16,383.49,4.877
17,383.56,4.877
18,383.62,4.877
19,383.69,4.877
20,383.76,4.877
21,383.83,4.877
22,383.90,4.877
23,383.97,4.877
24,384.04,4.877
25,384.11,4.877
26,384.18,4.877
27,384.25,4.877
28,384.32,4.877
29,384.39,4.877
30,384.46,4.877
31,384.54,4.877
32,384.62,4.877
33,384.68,4.878
34,384.75,4.878
35,384.83,4.878
36,384.90,4.878
37,384.98,4.878
38,385.06,4.878
39,385.12,4.878
40,385.20,4.878
41,385.28,4.878
42,385.35,4.878
43,385.43,4.878
44,385.51,4.878
45,385.59,4.878
46,385.66,4.878
47,385.74,4.878
48,385.82,4.878
49,385.89,4.878
50,385.97,4.878
51,386.05,4.878
52,386.12,4.878
53,386.20,4.878
54,386.29,4.878
55,386.37,4.878
56,386.45,4.878
57,386.53,4.878
58,386.61,4.878
59,386.68,4.878
60,386.76,4.878
61,386.84,4.878
62,386.92,4.878
63,387.01,4.878
64,387.08,4.878
65,387.16,4.878
66,387.24,4.878
67,387.32,4.878
68,387.41,4.878
69,387.49,4.878
70,387.57,4.878
71,387.65,4.878
72,387.73,4.878
73,387.81,4.878
74,387.89,4.878
75,387.97,4.878
76,388.05,4.877
77,388.14,4.877
78,388.22,4.877
79,388.30,4.877
80,388.38,4.877
81,388.46,4.877
82,388.54,4.877
83,388.63,4.877
84,388.71,4.877
85,388.80,4.877
86,388.88,4.877
87,388.96,4.877
88,389.03,4.877
89,389.11,4.877
90,389.19,4.877
91,389.28,4.877
92,389.37,4.877
93,389.45,4.877
94,389.54,4.877
95,389.62,4.877
96,389.70,4.877
97,389.79,4.877
98,389.86,4.877
99,389.95,4.877
100,390.02,4.877
101,390.11,4.877
102,390.19,4.877
103,390.28,4.877
104,390.36,4.877
105,390.44,4.877
106,390.53,4.877
107,390.61,4.877
108,390.69,4.877
109,390.78,4.877
110,390.86,4.877
111,390.94,4.877
112,391.02,4.877
113,391.10,4.877
114,391.19,4.877
115,391.27,4.877
116,391.35,4.877
117,391.44,4.877
118,391.52,4.877
119,391.60,4.877
120,391.69,4.877
121,391.77,4.877
122,391.86,4.877
123,391.94,4.877
124,392.02,4.877
125,392.10,4.877
126,392.18,4.877
127,392.26,4.877
128,392.35,4.877
129,392.43,4.877
130,392.52,4.877
131,392.60,4.877
132,392.70,4.877
133,392.78,4.877
134,392.86,4.877
135,392.94,4.877
136,393.02,4.877
137,393.09,4.877
138,393.18,4.877
139,393.27,4.877
140,393.35,4.877
141,393.44,4.877
142,393.52,4.877
143,393.61,4.877
144,393.69,4.877
145,393.78,4.877
146,393.85,4.877
147,393.93,4.877
148,394.01,4.877
149,394.10,4.877
150,394.19,4.877
151,394.28,4.877
152,394.36,4.877
153,394.44,4.877
154,394.52,4.877
155,394.60,4.877
156,394.69,4.877
157,394.77,4.877
158,394.86,4.877
159,394.94,4.877
160,395.02,4.877
161,395.11,4.877
162,395.19,4.877
163,395.27,4.877
164,395.35,4.877
165,395.44,4.877
166,395.53,4.877
167,395.61,4.877
168,395.69,4.877
169,395.77,4.877
170,395.86,4.877
171,395.94,4.877
172,396.03,4.877
173,396.11,4.877
174,396.19,4.877
175,396.28,4.877
176,396.36,4.877
177,396.44,4.877
178,396.52,4.877
179,396.61,4.877
180,396.70,4.877
181,396.78,4.877
182,396.86,4.877
183,396.94,4.877
184,397.02,4.877
185,397.11,4.877
186,397.20,4.877
187,397.28,4.877
188,397.37,4.877
189,397.45,4.876
190,397.53,4.876
191,397.61,4.876
192,397.69,4.876
193,397.77,4.876
194,397.86,4.876
195,397.95,4.876
196,398.03,4.876
197,398.11,4.876
198,398.19,4.876
199,398.28,4.876
200,398.37,4.876
201,398.45,4.876
202,398.54,4.876
203,398.61,4.876
204,398.70,4.876
205,398.78,4.876
206,398.86,4.876
207,398.94,4.876
208,399.03,4.876
209,399.11,4.876
210,399.20,4.876
211,399.28,4.876
212,399.36,4.876
213,399.45,4.876
214,399.54,4.876
215,399.62,4.876
216,399.70,4.876
217,399.79,4.876
218,399.87,4.876
219,399.95,4.876
220,400.03,4.876
221,400.11,4.876
222,400.20,4.876
223,400.29,4.876
224,400.38,4.876
225,400.46,4.876
226,400.54,4.876
227,400.62,4.876
228,400.70,4.876
229,400.78,4.876
230,400.87,4.876
231,400.96,4.876
232,401.05,4.876
233,401.13,4.876
234,401.21,4.876
235,401.29,4.876
236,401.37,4.876
237,401.45,4.876
238,401.54,4.876
239,401.63,4.876
240,401.72,4.876
241,401.80,4.876
242,401.88,4.876
243,401.96,4.876
244,402.04,4.876
245,402.12,4.876
246,402.21,4.876
247,402.29,4.875
248,402.37,4.875
249,402.46,4.875
250,402.54,4.875
251,402.62,4.875
252,402.71,4.875
253,402.79,4.875
254,402.88,4.875
255,402.96,4.875
256,403.05,4.875
257,403.13,4.875
258,403.21,4.875
259,403.30,4.875
260,403.38,4.875
261,403.46,4.875
262,403.54,4.875
263,403.63,4.875
264,403.72,4.875
265,403.80,4.875
266,403.89,4.875
267,403.97,4.875
268,404.05,4.875
269,404.13,4.875
270,404.21,4.875
271,404.29,4.875
272,404.38,4.875
273,404.47,4.875
274,404.56,4.875
275,404.64,4.875
276,404.72,4.875
277,404.79,4.875
278,404.88,4.875
279,404.96,4.875
280,405.05,4.875
281,405.14,4.875
282,405.22,4.875
283,405.30,4.875
284,405.38,4.875
285,405.46,4.875
286,405.55,4.875
287,405.63,4.875
288,405.72,4.875
289,405.81,4.875
290,405.89,4.875
291,405.97,4.875
292,406.05,4.875
293,406.13,4.875
294,406.22,4.875
295,406.31,4.875
296,406.39,4.875
297,406.48,4.875
298,406.56,4.875
299,406.64,4.875
300,406.72,4.875
301,406.81,4.875
302,406.89,4.875
303,406.97,4.875
304,407.06,4.875
305,407.14,4.875
306,407.23,4.875
307,407.31,4.875
308,407.39,4.875
309,407.48,4.874
310,407.56,4.874
311,407.64,4.874
312,407.72,4.874
313,407.81,4.874
314,407.89,4.874
315,407.98,4.874
316,408.06,4.874
317,408.15,4.874
318,408.23,4.874
319,408.31,4.874
320,408.40,4.874
321,408.48,4.874
322,408.56,4.874
323,408.65,4.874
324,408.73,4.874
325,408.81,4.874
326,408.89,4.874
327,408.98,4.874
328,409.06,4.874
329,409.15,4.874
330,409.23,4.874
331,409.32,4.874
332,409.39,4.874
333,409.48,4.874
334,409.56,4.874
335,409.64,4.874
336,409.73,4.874
337,409.82,4.874
338,409.90,4.874
339,409.98,4.874
340,410.07,4.874
341,410.15,4.874
342,410.23,4.874
343,410.32,4.874
344,410.40,4.874
345,410.49,4.874
346,410.57,4.874
347,410.65,4.874
348,410.73,4.874
349,410.82,4.874
350,410.91,4.874
351,410.99,4.874
352,411.07,4.874
353,411.15,4.874
354,411.23,4.874
355,411.32,4.873
356,411.40,4.873
357,411.49,4.873
358,411.57,4.873
359,411.66,4.873
360,411.74,4.873
361,411.83,4.873
362,411.91,4.873
363,411.99,4.873
364,412.07,4.873
365,412.16,4.873
366,412.24,4.873
367,412.32,4.873
368,412.40,4.873
369,412.49,4.873
370,412.57,4.873
371,412.66,4.873
372,412.74,4.873
373,412.83,4.873
374,412.91,4.873
375,413.00,4.873
376,413.08,4.873
377,413.17,4.873
378,413.25,4.873
379,413.33,4.873
380,413.41,4.873
381,413.49,4.873
382,413.57,4.873
383,413.66,4.873
384,413.75,4.873
385,413.83,4.873
386,413.91,4.873
387,413.99,4.873
388,414.08,4.873
389,414.16,4.873
390,414.25,4.873
391,414.33,4.873
392,414.42,4.873
393,414.49,4.873
394,414.58,4.873
395,414.66,4.872
396,414.75,4.872
397,414.83,4.872
398,414.91,4.872
399,415.00,4.872
400,415.09,4.872
401,415.17,4.872
402,415.26,4.872
403,415.34,4.872
404,415.42,4.872
405,415.50,4.872
406,415.58,4.872
407,415.66,4.872
408,415.75,4.872
409,415.84,4.872
410,415.92,4.872
411,416.01,4.872
412,416.09,4.872
413,416.17,4.872
414,416.25,4.872
415,416.34,4.872
416,416.42,4.872
417,416.50,4.872
418,416.59,4.872
419,416.67,4.872
420,416.75,4.872
421,416.84,4.872
422,416.92,4.872
423,417.01,4.872
424,417.09,4.872
425,417.17,4.872
426,417.26,4.871
427,417.34,4.871
428,417.43,4.871
429,417.51,4.871
430,417.59,4.871
431,417.67,4.871
432,417.75,4.871
433,417.84,4.871
434,417.93,4.871
435,418.01,4.871
436,418.10,4.871
437,418.17,4.871
438,418.26,4.871
439,418.34,4.871
440,418.43,4.871
441,418.51,4.871
442,418.60,4.871
443,418.68,4.871
444,418.76,4.871
445,418.85,4.871
446,418.93,4.871
447,419.01,4.871
448,419.09,4.871
449,419.18,4.871
450,419.26,4.871
451,419.35,4.871
452,419.43,4.871
453,419.52,4.871
454,419.60,4.871
455,419.68,4.871
456,419.76,4.871
457,419.85,4.871
458,419.93,4.871
459,420.02,4.870
460,420.10,4.870
461,420.18,4.870
462,420.27,4.870
463,420.35,4.870
464,420.43,4.870
465,420.52,4.870
466,420.60,4.870
467,420.68,4.870
468,420.77,4.870
469,420.85,4.870
470,420.94,4.870
471,421.02,4.870
472,421.11,4.870
473,421.19,4.870
474,421.27,4.870
475,421.36,4.870
476,421.43,4.870
477,421.52,4.870
478,421.60,4.870
479,421.69,4.870
480,421.77,4.870
481,421.86,4.870
482,421.94,4.870
483,422.02,4.870
484,422.10,4.870
485,422.19,4.870
486,422.28,4.869
487,422.36,4.869
488,422.45,4.869
489,422.53,4.869
490,422.61,4.869
491,422.69,4.869
492,422.77,4.869
493,422.85,4.869
494,422.94,4.869
495,423.03,4.869
496,423.11,4.869
497,423.20,4.869
498,423.28,4.869
499,423.36,4.869
500,423.45,4.869
501,423.53,4.869
502,423.61,4.869
503,423.69,4.869
504,423.78,4.869
505,423.86,4.869
506,423.95,4.869
507,424.03,4.869
508,424.11,4.869
509,424.20,4.869
510,424.28,4.869
511,424.37,4.869
512,424.45,4.869
513,424.53,4.869
514,424.62,4.869
515,424.69,4.868
516,424.78,4.868
517,424.87,4.868
518,424.95,4.868
519,425.03,4.868
520,425.12,4.868
521,425.20,4.868
522,425.28,4.868
523,425.37,4.868
524,425.45,4.868
525,425.54,4.868
526,425.62,4.868
527,425.70,4.868
528,425.78,4.868
529,425.87,4.868
530,425.96,4.868
531,426.04,4.868
532,426.12,4.868
533,426.20,4.868
534,426.29,4.868
535,426.37,4.868
536,426.46,4.868
537,426.54,4.868
538,426.63,4.867
539,426.71,4.867
540,426.79,4.867
541,426.87,4.867
542,426.95,4.867
543,427.04,4.867
544,427.12,4.867
545,427.21,4.867
546,427.30,4.867
547,427.38,4.867
548,427.46,4.867
549,427.53,4.867
550,427.62,4.867
551,427.71,4.867
552,427.80,4.867
553,427.88,4.867
554,427.97,4.867
555,428.04,4.867
556,428.12,4.867
557,428.20,4.867
558,428.29,4.866
559,428.38,4.866
560,428.47,4.866
561,428.55,4.866
562,428.63,4.866
563,428.71,4.866
564,428.79,4.866
565,428.87,4.866
566,428.96,4.866
567,429.04,4.866
568,429.13,4.866
569,429.21,4.866
570,429.30,4.866
571,429.38,4.866
572,429.47,4.866
573,429.55,4.866
574,429.63,4.866
575,429.71,4.866
576,429.79,4.866
577,429.87,4.866
578,429.96,4.866
579,430.05,4.866
580,430.14,4.865
581,430.22,4.865
582,430.30,4.865
583,430.38,4.865
584,430.46,4.865
585,430.54,4.865
586,430.63,4.865
587,430.72,4.865
588,430.80,4.865
589,430.88,4.865
590,430.96,4.865
591,431.04,4.865
592,431.13,4.865
593,431.22,4.865
594,431.30,4.865
595,431.38,4.865
596,431.47,4.865
597,431.55,4.865
598,431.63,4.865
599,431.72,4.864
600,431.80,4.864
601,431.88,4.864
602,431.97,4.864
603,432.05,4.864
604,432.14,4.864
605,432.22,4.864
606,432.30,4.864
607,432.38,4.864
608,432.47,4.864
609,432.55,4.864
610,432.64,4.864
611,432.72,4.864
612,432.81,4.864
613,432.89,4.864
614,432.97,4.864
615,433.05,4.863
616,433.13,4.863
617,433.22,4.863
618,433.30,4.863
619,433.39,4.863
620,433.47,4.863
621,433.55,4.863
622,433.63,4.863
623,433.72,4.863
624,433.80,4.863
625,433.89,4.863
626,433.97,4.863
627,434.06,4.863
628,434.14,4.863
629,434.23,4.863
630,434.31,4.862
631,434.39,4.862
632,434.47,4.862
633,434.56,4.862
634,434.63,4.862
635,434.72,4.862
636,434.81,4.862
637,434.89,4.862
638,434.98,4.862
639,435.06,4.862
640,435.14,4.862
641,435.22,4.862
642,435.30,4.862
643,435.39,4.862
644,435.47,4.862
645,435.56,4.862
646,435.65,4.861
647,435.73,4.861
648,435.81,4.861
649,435.89,4.861
650,435.98,4.861
651,436.06,4.861
652,436.15,4.861
653,436.23,4.861
654,436.31,4.861
655,436.39,4.861
656,436.47,4.861
657,436.56,4.861
658,436.64,4.861
659,436.73,4.861
660,436.81,4.860
661,436.90,4.860
662,436.98,4.860
663,437.06,4.860
664,437.14,4.860
665,437.23,4.860
666,437.31,4.860
667,437.40,4.860
668,437.48,4.860
669,437.56,4.860
670,437.65,4.860
671,437.73,4.860
672,437.81,4.860
673,437.89,4.859
674,437.98,4.859
675,438.06,4.859
676,438.15,4.859
677,438.23,4.859
678,438.32,4.859
679,438.40,4.859
680,438.49,4.859
681,438.56,4.859
682,438.65,4.859
683,438.73,4.859
684,438.81,4.859
685,438.89,4.859
686,438.98,4.859
687,439.06,4.859
688,439.15,4.858
689,439.24,4.858
690,439.32,4.858
691,439.40,4.858
692,439.48,4.858
693,439.56,4.858
694,439.64,4.858
695,439.73,4.858
696,439.81,4.858
697,439.90,4.858
698,439.99,4.858
699,440.07,4.858
700,440.15,4.858
701,440.23,4.857
702,440.32,4.857
703,440.40,4.857
704,440.49,4.857
705,440.57,4.857
706,440.65,4.857
707,440.73,4.857
708,440.81,4.857
709,440.90,4.857
710,440.98,4.857
711,441.07,4.857
712,441.16,4.857
713,441.24,4.857
714,441.33,4.856
715,441.41,4.856
716,441.48,4.856
717,441.56,4.856
718,441.65,4.856
719,441.74,4.856
720,441.83,4.856
721,441.91,4.856
722,441.99,4.856
723,442.07,4.856
724,442.15,4.856
725,442.23,4.855
726,442.32,4.855
727,442.40,4.855
728,442.50,4.855
729,442.57,4.855
730,442.65,4.855
731,442.74,4.855
732,442.82,4.855
733,442.90,4.855
734,442.99,4.855
735,443.08,4.854
736,443.16,4.854
737,443.24,4.854
738,443.32,4.854
739,443.41,4.854
740,443.49,4.854
741,443.57,4.854
742,443.65,4.854
743,443.73,4.854
744,443.82,4.854
745,443.91,4.854
746,443.99,4.853
747,444.08,4.853
748,444.16,4.853
749,444.24,4.853
750,444.32,4.853
751,444.41,4.853
752,444.49,4.853
753,444.57,4.853
754,444.66,4.853
755,444.74,4.853
756,444.83,4.852
757,444.91,4.852
758,444.99,4.852
759,445.08,4.852
760,445.16,4.852
761,445.25,4.852
762,445.33,4.852
763,445.41,4.852
764,445.49,4.852
765,445.58,4.851
766,445.66,4.851
767,445.74,4.851
768,445.83,4.851
769,445.92,4.851
770,446.00,4.851
771,446.08,4.851
772,446.16,4.851
773,446.24,4.851
774,446.33,4.851
775,446.42,4.850
776,446.50,4.850
777,446.58,4.850
778,446.67,4.850
779,446.75,4.850
780,446.83,4.850
781,446.92,4.850
782,447.00,4.850
783,447.08,4.850
784,447.17,4.850
785,447.24,4.849
786,447.33,4.849
787,447.42,4.849
788,447.50,4.849
789,447.58,4.849
790,447.67,4.849
791,447.74,4.849
792,447.83,4.849
793,447.91,4.849
794,448.00,4.848
795,448.08,4.848
796,448.17,4.848
797,448.25,4.848
798,448.33,4.848
799,448.41,4.848
800,448.50,4.848
801,448.58,4.848
802,448.66,4.848
803,448.75,4.847
804,448.83,4.847
805,448.92,4.847
806,449.00,4.847
807,449.08,4.847
808,449.17,4.847
809,449.25,4.847
810,449.33,4.846
811,449.42,4.846
812,449.50,4.846
813,449.59,4.846
814,449.68,4.846
815,449.76,4.846
816,449.84,4.846
817,449.91,4.846
818,449.99,4.845
819,450.08,4.845
820,450.16,4.845
821,450.26,4.845
822,450.35,4.845
823,450.43,4.845
824,450.51,4.845
825,450.59,4.845
826,450.67,4.845
827,450.76,4.844
828,450.84,4.844
829,450.92,4.844
830,451.01,4.844
831,451.09,4.844
832,451.18,4.844
833,451.26,4.844
834,451.34,4.844
835,451.42,4.844
836,451.50,4.843
837,451.59,4.843
838,451.68,4.843
839,451.76,4.843
840,451.85,4.843
841,451.93,4.843
842,452.01,4.843
843,452.09,4.843
844,452.17,4.842
845,452.26,4.842
846,452.34,4.842
847,452.43,4.842
848,452.51,4.842
849,452.59,4.842
850,452.68,4.842
851,452.76,4.841
852,452.84,4.841
853,452.93,4.841
854,453.01,4.841
855,453.09,4.841
856,453.18,4.841
857,453.26,4.841
858,453.34,4.841
859,453.42,4.840
860,453.51,4.840
861,453.59,4.840
862,453.68,4.840
863,453.77,4.840
864,453.85,4.840
865,453.93,4.840
866,454.01,4.839
867,454.09,4.839
868,454.17,4.839
869,454.26,4.839
870,454.35,4.839
871,454.44,4.839
872,454.51,4.839
873,454.59,4.838
874,454.67,4.838
875,454.76,4.838
876,454.85,4.838
877,454.94,4.838
878,455.02,4.838
879,455.10,4.838
880,455.18,4.837
881,455.26,4.837
882,455.35,4.837
883,455.43,4.837
884,455.51,4.837
885,455.60,4.837
886,455.69,4.837
887,455.77,4.836
888,455.85,4.836
889,455.93,4.836
890,456.02,4.836
891,456.10,4.836
892,456.19,4.836
893,456.27,4.835
894,456.35,4.835
895,456.43,4.835
896,456.52,4.835
897,456.60,4.835
898,456.69,4.835
899,456.77,4.835
900,456.85,4.834
901,456.94,4.834
902,457.02,4.834
903,457.10,4.834
904,457.18,4.834
905,457.27,4.834
906,457.35,4.833
907,457.44,4.833
908,457.52,4.833
909,457.60,4.833
910,457.68,4.833
911,457.77,4.833
912,457.85,4.833
913,457.94,4.832
914,458.02,4.832
915,458.10,4.832
916,458.18,4.832
917,458.27,4.832
918,458.36,4.832
919,458.44,4.831
920,458.52,4.831
921,458.60,4.831
922,458.69,4.831
923,458.77,4.831
924,458.85,4.831
925,458.94,4.830
926,459.02,4.830
927,459.10,4.830
928,459.19,4.830
929,459.28,4.830
930,459.36,4.830
931,459.44,4.829
932,459.52,4.829
933,459.60,4.829
934,459.69,4.829
935,459.77,4.829
936,459.85,4.829
937,459.94,4.828
938,460.02,4.828
939,460.11,4.828
940,460.19,4.828
941,460.27,4.828
942,460.36,4.827
943,460.44,4.827
944,460.52,4.827
945,460.61,4.827
946,460.69,4.827
947,460.77,4.827
948,460.86,4.826
949,460.94,4.826
950,461.03,4.826
951,461.11,4.826
952,461.19,4.826
953,461.27,4.826
954,461.36,4.825
955,461.45,4.825
956,461.53,4.825
957,461.61,4.825
958,461.69,4.825
959,461.78,4.824
960,461.86,4.824
961,461.94,4.824
962,462.03,4.824
963,462.12,4.824
964,462.20,4.824
965,462.28,4.823
966,462.36,4.823
967,462.44,4.823
968,462.53,4.823
969,462.61,4.823
970,462.70,4.822
971,462.79,4.822
972,462.86,4.822
973,462.95,4.822
974,463.03,4.822
975,463.11,4.821
976,463.19,4.821
977,463.28,4.821
978,463.36,4.821
979,463.45,4.821
980,463.53,4.820
981,463.62,4.820
982,463.70,4.820
983,463.78,4.820
984,463.86,4.820
985,463.94,4.820
986,464.03,4.819
987,464.11,4.819
988,464.20,4.819
989,464.28,4.819
990,464.36,4.819
991,464.45,4.818
992,464.53,4.818
993,464.61,4.818
994,464.71,4.818
995,464.79,4.818
996,464.87,4.818
997,464.95,4.817
998,465.03,4.817
999,465.12,4.817
1000,465.20,4.817
1001,465.29,4.817
1002,465.37,4.816
1003,465.45,4.816
1004,465.53,4.816
1005,465.62,4.816
1006,465.70,4.816
1007,465.78,4.815
1008,465.87,4.815
1009,465.96,4.815
1010,466.04,4.815
1011,466.12,4.815
1012,466.20,4.814
1013,466.28,4.814
1014,466.37,4.814
1015,466.45,4.814
1016,466.54,4.814
1017,466.62,4.813
1018,466.70,4.813
1019,466.79,4.813
1020,466.87,4.813
1021,466.96,4.813
1022,467.04,4.812
1023,467.12,4.812
1024,467.20,4.812
1025,467.29,4.812
1026,467.37,4.812
1027,467.46,4.811
1028,467.54,4.811
1029,467.62,4.811
1030,467.70,4.811
1031,467.78,4.811
1032,467.87,4.810
1033,467.96,4.810
1034,468.04,4.810
1035,468.13,4.810
1036,468.21,4.809
1037,468.29,4.809
1038,468.38,4.809
1039,468.46,4.809
1040,468.54,4.809
1041,468.62,4.808
1042,468.71,4.808
1043,468.79,4.808
1044,468.88,4.808
1045,468.96,4.808
1046,469.04,4.807
1047,469.12,4.807
1048,469.21,4.807
1049,469.30,4.807
1050,469.37,4.806
1051,469.46,4.806
1052,469.55,4.806
1053,469.63,4.806
1054,469.71,4.806
1055,469.79,4.805
1056,469.87,4.805
1057,469.95,4.805
1058,470.04,4.805
1059,470.13,4.804
1060,470.22,4.804
1061,470.30,4.804
1062,470.37,4.804
1063,470.46,4.804
1064,470.54,4.803
1065,470.62,4.803
1066,470.72,4.803
1067,470.80,4.803
1068,470.87,4.802
1069,470.96,4.802
1070,471.05,4.802
1071,471.13,4.802
1072,471.21,4.802
1073,471.29,4.801
1074,471.38,4.801
1075,471.47,4.801
1076,471.55,4.801
1077,471.63,4.800
1078,471.71,4.800
1079,471.80,4.800
1080,471.88,4.800
1081,471.96,4.799
1082,472.05,4.799
1083,472.14,4.799
1084,472.22,4.799
1085,472.30,4.799
1086,472.37,4.798
1087,472.46,4.798
1088,472.55,4.798
1089,472.63,4.798
1090,472.72,4.797
1091,472.80,4.797
1092,472.88,4.797
1093,472.97,4.797
1094,473.05,4.796
1095,473.14,4.796
1096,473.22,4.796
1097,473.30,4.796
1098,473.38,4.795
1099,473.46,4.795
1100,473.55,4.795
1101,473.63,4.795
1102,473.72,4.794
1103,473.80,4.794
1104,473.89,4.794
1105,473.97,4.794
1106,474.06,4.794
1107,474.13,4.793
1108,474.22,4.793
1109,474.30,4.793
1110,474.39,4.793
1111,474.47,4.792
1112,474.56,4.792
1113,474.64,4.792
1114,474.72,4.792
1115,474.80,4.791
1116,474.88,4.791
1117,474.97,4.791
1118,475.06,4.791
1119,475.14,4.790
1120,475.22,4.790
1121,475.31,4.790
1122,475.39,4.790
1123,475.47,4.789
1124,475.55,4.789
1125,475.63,4.789
1126,475.72,4.789
1127,475.81,4.788
1128,475.89,4.788
1129,475.97,4.788
1130,476.05,4.788
1131,476.13,4.787
1132,476.22,4.787
1133,476.30,4.787
1134,476.39,4.787
1135,476.48,4.786
1136,476.56,4.786
1137,476.64,4.786
1138,476.72,4.786
1139,476.80,4.786
1140,476.89,4.785
1141,476.97,4.785
1142,477.06,4.785
1143,477.14,4.785
1144,477.22,4.784
1145,477.31,4.784
1146,477.39,4.784
1147,477.48,4.784
1148,477.56,4.783
1149,477.64,4.783
1150,477.72,4.783
1151,477.80,4.783
1152,477.89,4.782
1153,477.97,4.782
1154,478.06,4.782
1155,478.15,4.781
1156,478.23,4.781
1157,478.31,4.781
1158,478.39,4.781
1159,478.48,4.780
1160,478.56,4.780
1161,478.64,4.780
1162,478.73,4.780
1163,478.81,4.779
1164,478.90,4.779
1165,478.98,4.779
1166,479.06,4.779
1167,479.14,4.778
1168,479.23,4.778
1169,479.31,4.778
