Time (s),Temperature (K),Mass (mg)
0.0,305.032,0.51
10.0,304.979,0.509
31.0,304.886,0.508
60.0,304.806,0.507
89.0,304.727,0.506
158.0,304.626,0.505
274.0,304.527,0.504
561.0,304.441,0.503
590.0,304.438,0.504
596.0,304.424,0.503
603.0,304.435,0.504
628.0,304.442,0.503
694.0,304.435,0.504
747.0,304.425,0.503
771.0,304.442,0.504
830.0,304.422,0.503
848.0,304.407,0.504
889.0,304.42,0.503
1006.0,304.424,0.504
1013.0,304.426,0.503
1032.0,304.41,0.504
1120.0,304.45,0.503
1204.21,305.0,0.502
1205.6,305.5,0.501
1206.625,306.0,0.501
1207.519,306.5,0.501
1208.385,307.0,0.501
1209.235,307.5,0.501
1210.04,308.0,0.501
1210.801,308.5,0.502
1211.492,309.0,0.502
1212.154,309.5,0.503
1212.799,310.0,0.504
1213.444,310.5,0.504
1214.085,311.0,0.504
1214.703,311.5,0.505
1215.32,312.0,0.505
1215.935,312.5,0.505
1216.546,313.0,0.506
1217.152,313.5,0.506
1217.748,314.0,0.506
1218.336,314.5,0.506
1218.919,315.0,0.506
1219.521,315.5,0.506
1220.121,316.0,0.506
1220.705,316.5,0.506
1221.292,317.0,0.506
1221.882,317.5,0.506
1222.469,318.0,0.506
1223.057,318.5,0.506
1223.649,319.0,0.506
1224.239,319.5,0.506
1224.827,320.0,0.506
1225.404,320.5,0.506
1225.977,321.0,0.506
1226.573,321.5,0.505
1227.164,322.0,0.505
1227.743,322.5,0.505
1228.331,323.0,0.505
1228.926,323.5,0.505
1229.509,324.0,0.504
1230.091,324.5,0.504
1230.683,325.0,0.504
1231.267,325.5,0.504
1231.843,326.0,0.504
1232.437,326.5,0.504
1233.036,327.0,0.504
1233.611,327.5,0.503
1234.194,328.0,0.503
1234.791,328.5,0.503
1235.377,329.0,0.503
1235.957,329.5,0.503
1236.554,330.0,0.503
1237.151,330.5,0.503
1237.742,331.0,0.503
1238.331,331.5,0.503
1238.919,332.0,0.502
1239.508,332.5,0.502
1240.098,333.0,0.502
1240.691,333.5,0.502
1241.284,334.0,0.502
1241.879,334.5,0.502
1242.468,335.0,0.502
1243.056,335.5,0.502
1243.641,336.0,0.502
1244.234,336.5,0.502
1244.84,337.0,0.502
1245.435,337.5,0.502
1246.025,338.0,0.501
1246.603,338.5,0.501
1247.187,339.0,0.501
1247.787,339.5,0.501
1248.385,340.0,0.501
1248.983,340.5,0.501
1249.584,341.0,0.501
1250.181,341.5,0.501
1250.77,342.0,0.501
1251.367,342.5,0.501
1251.968,343.0,0.501
1252.558,343.5,0.501
1253.149,344.0,0.501
1253.742,344.5,0.501
1254.337,345.0,0.501
1254.935,345.5,0.5
1255.53,346.0,0.5
1256.125,346.5,0.5
1256.722,347.0,0.5
1257.319,347.5,0.5
1257.917,348.0,0.5
1258.519,348.5,0.5
1259.12,349.0,0.5
1259.718,349.5,0.5
1260.317,350.0,0.5
1260.917,350.5,0.5
1261.512,351.0,0.5
1262.106,351.5,0.5
1262.704,352.0,0.5
1263.304,352.5,0.5
1263.907,353.0,0.5
1264.503,353.5,0.499
1265.097,354.0,0.499
1265.691,354.5,0.499
1266.286,355.0,0.499
1266.881,355.5,0.499
1267.486,356.0,0.499
1268.091,356.5,0.499
1268.679,357.0,0.499
1269.274,357.5,0.499
1269.877,358.0,0.499
1270.469,358.5,0.499
1271.06,359.0,0.499
1271.656,359.5,0.499
1272.254,360.0,0.499
1272.855,360.5,0.499
1273.454,361.0,0.499
1274.053,361.5,0.499
1274.655,362.0,0.499
1275.256,362.5,0.499
1275.858,363.0,0.498
1276.454,363.5,0.498
1277.048,364.0,0.498
1277.647,364.5,0.498
1278.246,365.0,0.498
1278.842,365.5,0.498
1279.442,366.0,0.498
1280.042,366.5,0.498
1280.641,367.0,0.498
1281.238,367.5,0.498
1281.83,368.0,0.498
1282.433,368.5,0.498
1283.04,369.0,0.498
1283.647,369.5,0.498
1284.245,370.0,0.498
1284.831,370.5,0.498
1285.428,371.0,0.498
1286.03,371.5,0.498
1286.636,372.0,0.498
1287.238,372.5,0.498
1287.837,373.0,0.498
1288.433,373.5,0.498
1289.028,374.0,0.498
1289.627,374.5,0.498
1290.225,375.0,0.498
1290.821,375.5,0.498
1291.422,376.0,0.498
1292.024,376.5,0.498
1292.612,377.0,0.498
1293.205,377.5,0.498
1293.806,378.0,0.497
1294.399,378.5,0.497
1294.989,379.0,0.497
1295.602,379.5,0.497
1296.209,380.0,0.497
1296.805,380.5,0.497
1297.404,381.0,0.497
1298.005,381.5,0.497
1298.6,382.0,0.497
1299.199,382.5,0.497
1299.805,383.0,0.497
1300.401,383.5,0.497
1300.993,384.0,0.497
1301.6,384.5,0.497
1302.203,385.0,0.497
1302.798,385.5,0.497
1303.39,386.0,0.497
1303.98,386.5,0.497
1304.574,387.0,0.497
1305.17,387.5,0.497
1305.772,388.0,0.497
1306.378,388.5,0.497
1306.985,389.0,0.497
1307.572,389.5,0.497
1308.163,390.0,0.497
1308.767,390.5,0.497
1309.369,391.0,0.497
1309.971,391.5,0.497
1310.56,392.0,0.497
1311.149,392.5,0.497
1311.742,393.0,0.497
1312.339,393.5,0.497
1312.94,394.0,0.497
1313.533,394.5,0.497
1314.126,395.0,0.497
1314.727,395.5,0.497
1315.324,396.0,0.497
1315.917,396.5,0.497
1316.512,397.0,0.497
1317.107,397.5,0.497
1317.703,398.0,0.497
1318.297,398.5,0.497
1318.89,399.0,0.497
1319.49,399.5,0.497
1320.092,400.0,0.497
1320.688,400.5,0.497
1321.284,401.0,0.497
1321.882,401.5,0.497
1322.472,402.0,0.497
1323.062,402.5,0.497
1323.665,403.0,0.497
1324.262,403.5,0.497
1324.852,404.0,0.497
1325.446,404.5,0.497
1326.041,405.0,0.497
1326.633,405.5,0.497
1327.227,406.0,0.497
1327.823,406.5,0.497
1328.417,407.0,0.497
1329.009,407.5,0.497
1329.601,408.0,0.497
1330.193,408.5,0.497
1330.786,409.0,0.497
1331.381,409.5,0.497
1331.977,410.0,0.497
1332.578,410.5,0.497
1333.176,411.0,0.497
1333.768,411.5,0.497
1334.356,412.0,0.497
1334.943,412.5,0.497
1335.539,413.0,0.497
1336.134,413.5,0.497
1336.721,414.0,0.497
1337.318,414.5,0.497
1337.925,415.0,0.497
1338.518,415.5,0.497
1339.11,416.0,0.497
1339.7,416.5,0.497
1340.292,417.0,0.497
1340.885,417.5,0.497
1341.48,418.0,0.497
1342.074,418.5,0.497
1342.665,419.0,0.497
1343.26,419.5,0.497
1343.86,420.0,0.497
1344.449,420.5,0.497
1345.035,421.0,0.497
1345.624,421.5,0.497
1346.214,422.0,0.497
1346.808,422.5,0.497
1347.402,423.0,0.497
1347.998,423.5,0.497
1348.584,424.0,0.497
1349.171,424.5,0.497
1349.762,425.0,0.497
1350.355,425.5,0.497
1350.949,426.0,0.497
1351.532,426.5,0.497
1352.118,427.0,0.497
1352.72,427.5,0.497
1353.313,428.0,0.497
1353.896,428.5,0.497
1354.48,429.0,0.497
1355.064,429.5,0.497
1355.656,430.0,0.497
1356.248,430.5,0.497
1356.842,431.0,0.497
1357.432,431.5,0.497
1358.021,432.0,0.496
1358.607,432.5,0.496
1359.194,433.0,0.496
1359.782,433.5,0.496
1360.371,434.0,0.496
1360.959,434.5,0.496
1361.548,435.0,0.496
1362.138,435.5,0.496
1362.732,436.0,0.496
1363.321,436.5,0.496
1363.903,437.0,0.496
1364.496,437.5,0.496
1365.091,438.0,0.496
1365.682,438.5,0.496
1366.276,439.0,0.496
1366.874,439.5,0.496
1367.461,440.0,0.496
1368.045,440.5,0.496
1368.631,441.0,0.496
1369.217,441.5,0.496
1369.8,442.0,0.496
1370.39,442.5,0.496
1370.982,443.0,0.496
1371.571,443.5,0.496
1372.16,444.0,0.496
1372.751,444.5,0.496
1373.337,445.0,0.496
1373.919,445.5,0.496
1374.499,446.0,0.496
1375.08,446.5,0.496
1375.669,447.0,0.495
1376.259,447.5,0.495
1376.852,448.0,0.495
1377.441,448.5,0.495
1378.03,449.0,0.495
1378.62,449.5,0.495
1379.207,450.0,0.495
1379.788,450.5,0.495
1380.371,451.0,0.495
1380.953,451.5,0.495
1381.538,452.0,0.495
1382.122,452.5,0.495
1382.704,453.0,0.495
1383.292,453.5,0.495
1383.885,454.0,0.495
1384.468,454.5,0.495
1385.048,455.0,0.495
1385.631,455.5,0.495
1386.217,456.0,0.495
1386.809,456.5,0.495
1387.395,457.0,0.495
1387.977,457.5,0.495
1388.552,458.0,0.494
1389.129,458.5,0.494
1389.714,459.0,0.494
1390.305,459.5,0.494
1390.901,460.0,0.494
1391.491,460.5,0.494
1392.078,461.0,0.494
1392.648,461.5,0.494
1393.225,462.0,0.494
1393.813,462.5,0.494
1394.398,463.0,0.494
1394.982,463.5,0.494
1395.558,464.0,0.494
1396.138,464.5,0.494
1396.731,465.0,0.494
1397.321,465.5,0.494
1397.908,466.0,0.493
1398.491,466.5,0.493
1399.073,467.0,0.493
1399.652,467.5,0.493
1400.236,468.0,0.493
1400.825,468.5,0.493
1401.404,469.0,0.493
1401.978,469.5,0.493
1402.564,470.0,0.493
1403.149,470.5,0.493
1403.731,471.0,0.493
1404.314,471.5,0.493
1404.898,472.0,0.492
1405.483,472.5,0.492
1406.067,473.0,0.492
1406.648,473.5,0.492
1407.227,474.0,0.492
1407.802,474.5,0.492
1408.39,475.0,0.492
1408.985,475.5,0.492
1409.566,476.0,0.492
1410.145,476.5,0.492
1410.723,477.0,0.492
1411.307,477.5,0.492
1411.896,478.0,0.491
1412.477,478.5,0.491
1413.056,479.0,0.491
1413.637,479.5,0.491
1414.22,480.0,0.491
1414.806,480.5,0.491
1415.387,481.0,0.491
1415.968,481.5,0.491
1416.547,482.0,0.491
1417.127,482.5,0.491
1417.712,483.0,0.49
1418.295,483.5,0.49
1418.875,484.0,0.49
1419.452,484.5,0.49
1420.029,485.0,0.49
1420.61,485.5,0.49
1421.192,486.0,0.49
1421.776,486.5,0.49
1422.359,487.0,0.49
1422.941,487.5,0.489
1423.521,488.0,0.489
1424.102,488.5,0.489
1424.686,489.0,0.489
1425.269,489.5,0.489
1425.852,490.0,0.489
1426.431,490.5,0.489
1427.009,491.0,0.489
1427.589,491.5,0.488
1428.168,492.0,0.488
1428.749,492.5,0.488
1429.329,493.0,0.488
1429.907,493.5,0.488
1430.491,494.0,0.488
1431.076,494.5,0.488
1431.658,495.0,0.488
1432.24,495.5,0.488
1432.821,496.0,0.488
1433.396,496.5,0.488
1433.968,497.0,0.487
1434.557,497.5,0.487
1435.145,498.0,0.487
1435.729,498.5,0.487
1436.311,499.0,0.487
1436.891,499.5,0.487
1437.469,500.0,0.487
1438.046,500.5,0.487
1438.623,501.0,0.486
1439.2,501.5,0.486
1439.777,502.0,0.486
1440.358,502.5,0.486
1440.942,503.0,0.486
1441.529,503.5,0.486
1442.116,504.0,0.486
1442.701,504.5,0.485
1443.282,505.0,0.485
1443.856,505.5,0.485
1444.433,506.0,0.485
1445.01,506.5,0.485
1445.586,507.0,0.485
1446.165,507.5,0.485
1446.75,508.0,0.485
1447.332,508.5,0.485
1447.913,509.0,0.484
1448.495,509.5,0.484
1449.077,510.0,0.484
1449.655,510.5,0.484
1450.236,511.0,0.484
1450.824,511.5,0.483
1451.41,512.0,0.483
1451.996,512.5,0.483
1452.571,513.0,0.483
1453.148,513.5,0.483
1453.732,514.0,0.483
1454.31,514.5,0.483
1454.884,515.0,0.482
1455.464,515.5,0.482
1456.046,516.0,0.482
1456.625,516.5,0.482
1457.205,517.0,0.482
1457.789,517.5,0.482
1458.371,518.0,0.482
1458.952,518.5,0.481
1459.531,519.0,0.481
1460.109,519.5,0.481
1460.689,520.0,0.481
1461.271,520.5,0.481
1461.856,521.0,0.48
1462.437,521.5,0.48
1463.016,522.0,0.48
1463.6,522.5,0.48
1464.185,523.0,0.48
1464.769,523.5,0.479
1465.352,524.0,0.479
1465.935,524.5,0.479
1466.513,525.0,0.479
1467.09,525.5,0.479
1467.667,526.0,0.478
1468.252,526.5,0.478
1468.848,527.0,0.478
1469.43,527.5,0.478
1470.007,528.0,0.477
1470.586,528.5,0.477
1471.166,529.0,0.477
1471.745,529.5,0.477
1472.322,530.0,0.477
1472.897,530.5,0.476
1473.478,531.0,0.476
1474.062,531.5,0.476
1474.649,532.0,0.475
1475.232,532.5,0.475
1475.809,533.0,0.475
1476.392,533.5,0.475
1476.98,534.0,0.475
1477.559,534.5,0.474
1478.139,535.0,0.474
1478.721,535.5,0.474
1479.301,536.0,0.474
1479.877,536.5,0.473
1480.46,537.0,0.473
1481.045,537.5,0.473
1481.627,538.0,0.472
1482.205,538.5,0.472
1482.776,539.0,0.472
1483.357,539.5,0.472
1483.944,540.0,0.471
1484.536,540.5,0.471
1485.125,541.0,0.471
1485.7,541.5,0.47
1486.28,542.0,0.47
1486.866,542.5,0.47
1487.448,543.0,0.47
1488.028,543.5,0.469
1488.609,544.0,0.469
1489.19,544.5,0.469
1489.771,545.0,0.468
1490.355,545.5,0.468
1490.94,546.0,0.468
1491.513,546.5,0.467
1492.087,547.0,0.467
1492.677,547.5,0.466
1493.266,548.0,0.466
1493.854,548.5,0.466
1494.437,549.0,0.466
1495.017,549.5,0.465
1495.597,550.0,0.465
1496.177,550.5,0.465
1496.76,551.0,0.464
1497.342,551.5,0.464
1497.924,552.0,0.463
1498.511,552.5,0.463
1499.096,553.0,0.463
1499.671,553.5,0.462
1500.25,554.0,0.462
1500.834,554.5,0.462
1501.423,555.0,0.462
1502.013,555.5,0.461
1502.588,556.0,0.46
1503.165,556.5,0.46
1503.747,557.0,0.46
1504.334,557.5,0.46
1504.924,558.0,0.459
1505.511,558.5,0.458
1506.096,559.0,0.458
1506.673,559.5,0.458
1507.25,560.0,0.458
1507.826,560.5,0.457
1508.41,561.0,0.457
1508.996,561.5,0.456
1509.582,562.0,0.456
1510.166,562.5,0.456
1510.749,563.0,0.455
1511.332,563.5,0.455
1511.916,564.0,0.454
1512.499,564.5,0.454
1513.081,565.0,0.454
1513.661,565.5,0.453
1514.244,566.0,0.453
1514.829,566.5,0.452
1515.415,567.0,0.452
1516.002,567.5,0.451
1516.589,568.0,0.451
1517.175,568.5,0.451
1517.758,569.0,0.45
1518.342,569.5,0.45
1518.928,570.0,0.449
1519.511,570.5,0.448
1520.094,571.0,0.448
1520.682,571.5,0.448
1521.265,572.0,0.448
1521.841,572.5,0.447
1522.427,573.0,0.447
1523.018,573.5,0.446
1523.603,574.0,0.445
1524.187,574.5,0.445
1524.766,575.0,0.445
1525.354,575.5,0.445
1525.948,576.0,0.444
1526.531,576.5,0.443
1527.114,577.0,0.443
1527.702,577.5,0.442
1528.285,578.0,0.442
1528.861,578.5,0.441
1529.445,579.0,0.441
1530.032,579.5,0.44
1530.616,580.0,0.44
1531.202,580.5,0.44
1531.789,581.0,0.439
1532.375,581.5,0.439
1532.961,582.0,0.438
1533.545,582.5,0.437
1534.128,583.0,0.437
1534.71,583.5,0.436
1535.296,584.0,0.436
1535.885,584.5,0.435
1536.47,585.0,0.435
1537.054,585.5,0.434
1537.642,586.0,0.433
1538.228,586.5,0.433
1538.81,587.0,0.432
1539.396,587.5,0.432
1539.982,588.0,0.432
1540.567,588.5,0.431
1541.152,589.0,0.431
1541.743,589.5,0.43
1542.33,590.0,0.43
1542.915,590.5,0.429
1543.504,591.0,0.428
1544.093,591.5,0.428
1544.684,592.0,0.427
1545.275,592.5,0.427
1545.868,593.0,0.426
1546.451,593.5,0.425
1547.03,594.0,0.424
1547.616,594.5,0.423
1548.204,595.0,0.423
1548.796,595.5,0.422
1549.385,596.0,0.422
1549.971,596.5,0.421
1550.558,597.0,0.42
1551.146,597.5,0.42
1551.732,598.0,0.419
1552.321,598.5,0.419
1552.91,599.0,0.418
1553.498,599.5,0.417
1554.086,600.0,0.416
1554.673,600.5,0.415
1555.261,601.0,0.415
1555.849,601.5,0.414
1556.438,602.0,0.414
1557.027,602.5,0.413
1557.613,603.0,0.412
1558.201,603.5,0.411
1558.791,604.0,0.41
1559.383,604.5,0.41
1559.975,605.0,0.409
1560.562,605.5,0.408
1561.147,606.0,0.407
1561.73,606.5,0.406
1562.319,607.0,0.406
1562.914,607.5,0.405
1563.501,608.0,0.404
1564.088,608.5,0.403
1564.69,609.0,0.402
1565.285,609.5,0.401
1565.872,610.0,0.4
1566.457,610.5,0.4
1567.041,611.0,0.399
1567.63,611.5,0.398
1568.22,612.0,0.398
1568.813,612.5,0.396
1569.409,613.0,0.395
1570.006,613.5,0.394
1570.591,614.0,0.393
1571.177,614.5,0.393
1571.764,615.0,0.391
1572.356,615.5,0.391
1572.95,616.0,0.39
1573.545,616.5,0.389
1574.14,617.0,0.388
1574.731,617.5,0.387
1575.325,618.0,0.386
1575.92,618.5,0.385
1576.504,619.0,0.384
1577.088,619.5,0.383
1577.683,620.0,0.382
1578.277,620.5,0.38
1578.87,621.0,0.379
1579.465,621.5,0.379
1580.062,622.0,0.378
1580.656,622.5,0.377
1581.247,623.0,0.376
1581.835,623.5,0.374
1582.424,624.0,0.373
1583.013,624.5,0.372
1583.609,625.0,0.371
1584.204,625.5,0.37
1584.797,626.0,0.368
1585.392,626.5,0.367
1585.988,627.0,0.366
1586.578,627.5,0.365
1587.169,628.0,0.364
1587.764,628.5,0.362
1588.354,629.0,0.361
1588.941,629.5,0.36
1589.54,630.0,0.359
1590.138,630.5,0.358
1590.732,631.0,0.357
1591.321,631.5,0.355
1591.907,632.0,0.354
1592.504,632.5,0.353
1593.101,633.0,0.352
1593.692,633.5,0.351
1594.286,634.0,0.349
1594.882,634.5,0.348
1595.48,635.0,0.347
1596.079,635.5,0.346
1596.675,636.0,0.344
1597.271,636.5,0.342
1597.867,637.0,0.341
1598.457,637.5,0.34
1599.046,638.0,0.339
1599.637,638.5,0.338
1600.228,639.0,0.337
1600.819,639.5,0.335
1601.415,640.0,0.334
1602.012,640.5,0.332
1602.605,641.0,0.331
1603.2,641.5,0.33
1603.799,642.0,0.328
1604.398,642.5,0.327
1604.996,643.0,0.325
1605.598,643.5,0.324
1606.195,644.0,0.323
1606.782,644.5,0.321
1607.376,645.0,0.32
1607.974,645.5,0.318
1608.575,646.0,0.317
1609.173,646.5,0.316
1609.764,647.0,0.314
1610.358,647.5,0.313
1610.954,648.0,0.311
1611.552,648.5,0.31
1612.149,649.0,0.309
1612.742,649.5,0.307
1613.338,650.0,0.305
1613.938,650.5,0.304
1614.535,651.0,0.302
1615.132,651.5,0.301
1615.727,652.0,0.3
1616.323,652.5,0.298
1616.921,653.0,0.296
1617.517,653.5,0.295
1618.113,654.0,0.294
1618.713,654.5,0.292
1619.315,655.0,0.29
1619.918,655.5,0.288
1620.514,656.0,0.287
1621.112,656.5,0.286
1621.721,657.0,0.284
1622.319,657.5,0.282
1622.908,658.0,0.28
1623.504,658.5,0.279
1624.103,659.0,0.278
1624.709,659.5,0.276
1625.309,660.0,0.274
1625.904,660.5,0.272
1626.501,661.0,0.27
1627.099,661.5,0.269
1627.703,662.0,0.268
1628.305,662.5,0.266
1628.905,663.0,0.264
1629.507,663.5,0.262
1630.106,664.0,0.261
1630.695,664.5,0.259
1631.29,665.0,0.257
1631.891,665.5,0.255
1632.49,666.0,0.254
1633.09,666.5,0.252
1633.695,667.0,0.25
1634.298,667.5,0.248
1634.9,668.0,0.246
1635.503,668.5,0.244
1636.105,669.0,0.243
1636.704,669.5,0.241
1637.303,670.0,0.239
1637.902,670.5,0.237
1638.504,671.0,0.235
1639.107,671.5,0.233
1639.714,672.0,0.231
1640.317,672.5,0.229
1640.917,673.0,0.227
1641.519,673.5,0.225
1642.119,674.0,0.223
1642.713,674.5,0.221
1643.314,675.0,0.219
1643.921,675.5,0.217
1644.52,676.0,0.215
1645.12,676.5,0.213
1645.723,677.0,0.211
1646.326,677.5,0.209
1646.928,678.0,0.206
1647.532,678.5,0.204
1648.134,679.0,0.202
1648.729,679.5,0.2
1649.33,680.0,0.198
1649.937,680.5,0.196
1650.538,681.0,0.194
1651.141,681.5,0.192
1651.75,682.0,0.19
1652.354,682.5,0.188
1652.954,683.0,0.185
1653.557,683.5,0.183
1654.16,684.0,0.181
1654.764,684.5,0.179
1655.367,685.0,0.177
1655.969,685.5,0.175
1656.574,686.0,0.173
1657.179,686.5,0.17
1657.783,687.0,0.169
1658.383,687.5,0.167
1658.981,688.0,0.165
1659.578,688.5,0.163
1660.178,689.0,0.161
1660.781,689.5,0.16
1661.385,690.0,0.158
1661.988,690.5,0.156
1662.59,691.0,0.154
1663.19,691.5,0.152
1663.789,692.0,0.151
1664.389,692.5,0.149
1664.99,693.0,0.148
1665.598,693.5,0.146
1666.204,694.0,0.145
1666.806,694.5,0.143
1667.407,695.0,0.142
1668.007,695.5,0.141
1668.613,696.0,0.14
1669.218,696.5,0.139
1669.819,697.0,0.137
1670.425,697.5,0.136
1671.032,698.0,0.135
1671.63,698.5,0.134
1672.229,699.0,0.133
1672.833,699.5,0.132
1673.439,700.0,0.132
1674.046,700.5,0.131
1674.654,701.0,0.13
1675.256,701.5,0.129
1675.852,702.0,0.129
1676.454,702.5,0.129
1677.057,703.0,0.128
1677.66,703.5,0.127
1678.265,704.0,0.127
1678.872,704.5,0.126
1679.476,705.0,0.126
1680.08,705.5,0.125
1680.686,706.0,0.125
1681.292,706.5,0.125
1681.897,707.0,0.124
1682.501,707.5,0.124
1683.106,708.0,0.124
1683.715,708.5,0.123
1684.319,709.0,0.123
1684.92,709.5,0.123
1685.522,710.0,0.123
1686.125,710.5,0.123
1686.731,711.0,0.122
1687.338,711.5,0.122
1687.945,712.0,0.122
1688.548,712.5,0.122
1689.149,713.0,0.122
1689.747,713.5,0.121
1690.35,714.0,0.121
1690.955,714.5,0.121
1691.567,715.0,0.121
1692.178,715.5,0.121
1692.783,716.0,0.121
1693.387,716.5,0.121
1693.99,717.0,0.12
1694.596,717.5,0.12
1695.201,718.0,0.12
1695.807,718.5,0.12
1696.419,719.0,0.12
1697.034,719.5,0.12
1697.634,720.0,0.119
1698.235,720.5,0.119
1698.837,721.0,0.119
1699.442,721.5,0.119
1700.047,722.0,0.119
1700.653,722.5,0.119
1701.258,723.0,0.119
1701.862,723.5,0.118
1702.463,724.0,0.118
1703.065,724.5,0.118
1703.674,725.0,0.118
1704.28,725.5,0.118
1704.883,726.0,0.118
1705.49,726.5,0.118
1706.098,727.0,0.117
1706.709,727.5,0.117
1707.32,728.0,0.117
1707.932,728.5,0.117
1708.532,729.0,0.117
1709.134,729.5,0.117
1709.744,730.0,0.116
1710.35,730.5,0.116
1710.953,731.0,0.116
1711.559,731.5,0.116
1712.166,732.0,0.116
1712.772,732.5,0.116
1713.377,733.0,0.116
1713.982,733.5,0.116
1714.587,734.0,0.115
1715.192,734.5,0.115
1715.798,735.0,0.115
1716.403,735.5,0.115
1717.007,736.0,0.115
1717.609,736.5,0.115
1718.213,737.0,0.115
1718.821,737.5,0.114
1719.434,738.0,0.114
1720.048,738.5,0.114
1720.647,739.0,0.114
1721.251,739.5,0.114
1721.86,740.0,0.114
1722.466,740.5,0.114
1723.071,741.0,0.114
1723.68,741.5,0.114
1724.291,742.0,0.114
1724.901,742.5,0.113
1725.508,743.0,0.113
1726.115,743.5,0.113
1726.723,744.0,0.113
1727.33,744.5,0.113
1727.938,745.0,0.113
1728.544,745.5,0.113
1729.149,746.0,0.113
1729.757,746.5,0.112
1730.365,747.0,0.112
1730.973,747.5,0.112
1731.581,748.0,0.112
1732.187,748.5,0.112
1732.789,749.0,0.112
1733.396,749.5,0.112
1734.006,750.0,0.112
1734.611,750.5,0.111
1735.218,751.0,0.111
1735.828,751.5,0.111
1736.436,752.0,0.111
1737.042,752.5,0.111
1737.648,753.0,0.111
1738.257,753.5,0.111
1738.871,754.0,0.111
1739.476,754.5,0.111
1740.08,755.0,0.111
1740.689,755.5,0.11
1741.298,756.0,0.11
1741.907,756.5,0.11
1742.516,757.0,0.11
1743.124,757.5,0.11
1743.731,758.0,0.11
1744.339,758.5,0.11
1744.948,759.0,0.11
1745.55,759.5,0.109
1746.153,760.0,0.109
1746.762,760.5,0.109
1747.369,761.0,0.109
1747.977,761.5,0.109
1748.582,762.0,0.109
1749.187,762.5,0.109
1749.794,763.0,0.109
1750.4,763.5,0.109
1751.005,764.0,0.109
1751.618,764.5,0.109
1752.23,765.0,0.109
1752.84,765.5,0.108
1753.449,766.0,0.108
1754.057,766.5,0.108
1754.665,767.0,0.108
1755.271,767.5,0.108
1755.875,768.0,0.108
1756.489,768.5,0.108
1757.103,769.0,0.108
1757.703,769.5,0.108
1758.305,770.0,0.108
1758.909,770.5,0.108
1759.521,771.0,0.107
1760.134,771.5,0.107
1760.742,772.0,0.107
1761.349,772.5,0.107
1761.955,773.0,0.107
1762.561,773.5,0.107
1763.168,774.0,0.107
1763.778,774.5,0.107
