Time (s),Temperature (K),Mass (mg)
0.0,304.991,0.97
3.0,304.983,0.969
9.0,304.964,0.968
16.0,304.91,0.967
25.0,304.9,0.966
33.0,304.853,0.965
41.0,304.822,0.964
50.0,304.789,0.963
61.0,304.756,0.962
74.0,304.727,0.961
87.0,304.706,0.96
104.0,304.669,0.959
122.0,304.638,0.958
141.0,304.614,0.957
165.0,304.574,0.956
193.0,304.531,0.955
225.0,304.524,0.954
267.0,304.492,0.953
327.0,304.476,0.952
399.0,304.437,0.951
533.0,304.407,0.95
761.0,304.409,0.949
814.0,304.412,0.95
816.0,304.401,0.949
849.0,304.401,0.95
856.0,304.402,0.949
1204.118,305.0,0.947
1206.474,305.5,0.947
1208.182,306.0,0.946
1209.579,306.5,0.947
1210.908,307.0,0.948
1212.15,307.5,0.949
1213.387,308.0,0.95
1214.585,308.5,0.951
1215.74,309.0,0.951
1216.864,309.5,0.951
1217.973,310.0,0.952
1219.076,310.5,0.952
1220.188,311.0,0.952
1221.276,311.5,0.951
1222.376,312.0,0.951
1223.464,312.5,0.951
1224.549,313.0,0.951
1225.625,313.5,0.951
1226.701,314.0,0.95
1227.746,314.5,0.95
1228.827,315.0,0.95
1229.875,315.5,0.95
1230.98,316.0,0.95
1232.035,316.5,0.95
1233.069,317.0,0.95
1234.114,317.5,0.949
1235.187,318.0,0.949
1236.228,318.5,0.949
1237.289,319.0,0.949
1238.348,319.5,0.949
1239.386,320.0,0.949
1240.434,320.5,0.949
1241.483,321.0,0.949
1242.526,321.5,0.949
1243.56,322.0,0.949
1244.616,322.5,0.949
1245.637,323.0,0.949
1246.667,323.5,0.948
1247.712,324.0,0.948
1248.759,324.5,0.948
1249.797,325.0,0.948
1250.822,325.5,0.948
1251.828,326.0,0.948
1252.9,326.5,0.948
1253.956,327.0,0.948
1254.978,327.5,0.948
1256.03,328.0,0.948
1257.016,328.5,0.948
1258.043,329.0,0.948
1259.06,329.5,0.948
1260.121,330.0,0.948
1261.145,330.5,0.947
1262.169,331.0,0.947
1263.213,331.5,0.947
1264.257,332.0,0.947
1265.288,332.5,0.947
1266.301,333.0,0.947
1267.31,333.5,0.947
1268.349,334.0,0.947
1269.364,334.5,0.947
1270.381,335.0,0.946
1271.4,335.5,0.946
1272.439,336.0,0.946
1273.464,336.5,0.946
1274.472,337.0,0.946
1275.484,337.5,0.946
1276.506,338.0,0.946
1277.526,338.5,0.945
1278.553,339.0,0.945
1279.579,339.5,0.945
1280.588,340.0,0.945
1281.6,340.5,0.945
1282.634,341.0,0.945
1283.662,341.5,0.945
1284.671,342.0,0.945
1285.689,342.5,0.945
1286.697,343.0,0.944
1287.715,343.5,0.944
1288.743,344.0,0.944
1289.773,344.5,0.944
1290.774,345.0,0.944
1291.814,345.5,0.944
1292.806,346.0,0.944
1293.81,346.5,0.944
1294.83,347.0,0.944
1295.855,347.5,0.943
1296.87,348.0,0.943
1297.918,348.5,0.943
1298.899,349.0,0.943
1299.911,349.5,0.943
1300.91,350.0,0.943
1301.94,350.5,0.943
1302.952,351.0,0.943
1303.952,351.5,0.942
1304.979,352.0,0.942
1305.986,352.5,0.942
1307.018,353.0,0.942
1308.014,353.5,0.942
1309.024,354.0,0.942
1310.024,354.5,0.942
1311.029,355.0,0.942
1312.057,355.5,0.942
1313.079,356.0,0.941
1314.073,356.5,0.941
1315.084,357.0,0.941
1316.089,357.5,0.941
1317.1,358.0,0.941
1318.104,358.5,0.941
1319.104,359.0,0.941
1320.103,359.5,0.941
1321.114,360.0,0.941
1322.144,360.5,0.941
1323.134,361.0,0.941
1324.145,361.5,0.94
1325.157,362.0,0.94
1326.165,362.5,0.94
1327.145,363.0,0.94
1328.164,363.5,0.94
1329.181,364.0,0.94
1330.179,364.5,0.94
1331.193,365.0,0.94
1332.197,365.5,0.94
1333.196,366.0,0.94
1334.203,366.5,0.94
1335.2,367.0,0.94
1336.208,367.5,0.94
1337.231,368.0,0.94
1338.223,368.5,0.94
1339.21,369.0,0.939
1340.225,369.5,0.939
1341.226,370.0,0.939
1342.224,370.5,0.939
1343.235,371.0,0.939
1344.23,371.5,0.939
1345.222,372.0,0.939
1346.23,372.5,0.939
1347.247,373.0,0.939
1348.235,373.5,0.939
1349.242,374.0,0.939
1350.233,374.5,0.939
1351.247,375.0,0.939
1352.244,375.5,0.939
1353.242,376.0,0.939
1354.234,376.5,0.939
1355.208,377.0,0.939
1356.218,377.5,0.939
1357.237,378.0,0.939
1358.241,378.5,0.939
1359.226,379.0,0.939
1360.233,379.5,0.939
1361.229,380.0,0.939
1362.224,380.5,0.939
1363.196,381.0,0.939
1364.206,381.5,0.939
1365.201,382.0,0.939
1366.194,382.5,0.939
1367.208,383.0,0.939
1368.2,383.5,0.939
1369.188,384.0,0.939
1370.182,384.5,0.939
1371.193,385.0,0.939
1372.191,385.5,0.939
1373.167,386.0,0.939
1374.154,386.5,0.939
1375.17,387.0,0.939
1376.137,387.5,0.939
1377.129,388.0,0.939
1378.108,388.5,0.939
1379.113,389.0,0.939
1380.123,389.5,0.939
1381.112,390.0,0.939
1382.107,390.5,0.939
1383.099,391.0,0.939
1384.103,391.5,0.939
1385.08,392.0,0.939
1386.072,392.5,0.939
1387.04,393.0,0.939
1388.05,393.5,0.939
1389.021,394.0,0.939
1390.048,394.5,0.939
1391.012,395.0,0.939
1392.024,395.5,0.939
1393.02,396.0,0.939
1394.0,396.5,0.939
1395.004,397.0,0.939
1395.964,397.5,0.939
1396.951,398.0,0.939
1397.95,398.5,0.939
1398.948,399.0,0.939
1399.933,399.5,0.939
1400.923,400.0,0.939
1401.9,400.5,0.939
1402.893,401.0,0.939
1403.881,401.5,0.939
1404.856,402.0,0.939
1405.849,402.5,0.939
1406.845,403.0,0.939
1407.807,403.5,0.939
1408.8,404.0,0.939
1409.783,404.5,0.939
1410.764,405.0,0.939
1411.782,405.5,0.939
1412.759,406.0,0.939
1413.737,406.5,0.939
1414.72,407.0,0.939
1415.709,407.5,0.939
1416.691,408.0,0.939
1417.679,408.5,0.939
1418.672,409.0,0.939
1419.658,409.5,0.939
1420.635,410.0,0.939
1421.621,410.5,0.939
1422.591,411.0,0.939
1423.564,411.5,0.939
1424.552,412.0,0.939
1425.531,412.5,0.939
1426.521,413.0,0.939
1427.521,413.5,0.939
1428.513,414.0,0.939
1429.497,414.5,0.939
1430.472,415.0,0.939
1431.448,415.5,0.939
1432.435,416.0,0.939
1433.414,416.5,0.939
1434.386,417.0,0.939
1435.374,417.5,0.939
1436.354,418.0,0.939
1437.348,418.5,0.939
1438.336,419.0,0.938
1439.319,419.5,0.938
1440.287,420.0,0.938
1441.275,420.5,0.938
1442.258,421.0,0.938
1443.229,421.5,0.938
1444.228,422.0,0.938
1445.207,422.5,0.938
1446.171,423.0,0.938
1447.165,423.5,0.938
1448.146,424.0,0.938
1449.124,424.5,0.938
1450.12,425.0,0.938
1451.099,425.5,0.938
1452.066,426.0,0.938
1453.04,426.5,0.938
1454.031,427.0,0.938
1455.004,427.5,0.938
1455.96,428.0,0.938
1456.972,428.5,0.938
1457.938,429.0,0.938
1458.923,429.5,0.938
1459.906,430.0,0.938
1460.871,430.5,0.938
1461.854,431.0,0.938
1462.827,431.5,0.938
1463.82,432.0,0.938
1464.799,432.5,0.938
1465.772,433.0,0.938
1466.751,433.5,0.938
1467.723,434.0,0.938
1468.713,434.5,0.938
1469.682,435.0,0.938
1470.663,435.5,0.938
1471.643,436.0,0.938
1472.619,436.5,0.938
1473.598,437.0,0.938
1474.585,437.5,0.938
1475.556,438.0,0.938
1476.519,438.5,0.938
1477.494,439.0,0.938
1478.482,439.5,0.938
1479.473,440.0,0.938
1480.446,440.5,0.937
1481.412,441.0,0.937
1482.386,441.5,0.937
1483.367,442.0,0.937
1484.348,442.5,0.937
1485.311,443.0,0.937
1486.294,443.5,0.937
1487.283,444.0,0.937
1488.256,444.5,0.937
1489.221,445.0,0.937
1490.181,445.5,0.937
1491.172,446.0,0.937
1492.154,446.5,0.937
1493.109,447.0,0.937
1494.078,447.5,0.937
1495.053,448.0,0.937
1496.043,448.5,0.937
1497.023,449.0,0.937
1497.985,449.5,0.937
1498.944,450.0,0.936
1499.936,450.5,0.936
1500.9,451.0,0.936
1501.87,451.5,0.936
1502.854,452.0,0.936
1503.83,452.5,0.936
1504.804,453.0,0.936
1505.787,453.5,0.936
1506.761,454.0,0.936
1507.732,454.5,0.936
1508.702,455.0,0.936
1509.68,455.5,0.936
1510.646,456.0,0.936
1511.608,456.5,0.936
1512.58,457.0,0.935
1513.55,457.5,0.935
1514.521,458.0,0.935
1515.496,458.5,0.935
1516.47,459.0,0.935
1517.446,459.5,0.935
1518.418,460.0,0.935
1519.384,460.5,0.935
1520.356,461.0,0.935
1521.329,461.5,0.934
1522.3,462.0,0.934
1523.277,462.5,0.934
1524.268,463.0,0.934
1525.245,463.5,0.934
1526.212,464.0,0.934
1527.169,464.5,0.934
1528.141,465.0,0.933
1529.117,465.5,0.933
1530.067,466.0,0.933
1531.05,466.5,0.933
1532.014,467.0,0.933
1532.984,467.5,0.933
1533.969,468.0,0.933
1534.942,468.5,0.933
1535.907,469.0,0.932
1536.873,469.5,0.932
1537.846,470.0,0.932
1538.824,470.5,0.932
1539.79,471.0,0.932
1540.759,471.5,0.932
1541.734,472.0,0.932
1542.714,472.5,0.931
1543.677,473.0,0.931
1544.65,473.5,0.931
1545.622,474.0,0.931
1546.581,474.5,0.931
1547.553,475.0,0.931
1548.53,475.5,0.931
1549.507,476.0,0.93
1550.479,476.5,0.93
1551.449,477.0,0.93
1552.422,477.5,0.93
1553.395,478.0,0.93
1554.367,478.5,0.93
1555.329,479.0,0.93
1556.309,479.5,0.93
1557.268,480.0,0.93
1558.241,480.5,0.929
1559.204,481.0,0.929
1560.17,481.5,0.929
1561.145,482.0,0.929
1562.129,482.5,0.929
1563.117,483.0,0.929
1564.067,483.5,0.928
1565.055,484.0,0.928
1566.004,484.5,0.928
1566.996,485.0,0.928
1567.956,485.5,0.928
1568.923,486.0,0.927
1569.918,486.5,0.927
1570.866,487.0,0.927
1571.846,487.5,0.927
1572.826,488.0,0.927
1573.778,488.5,0.927
1574.752,489.0,0.927
1575.707,489.5,0.926
1576.675,490.0,0.926
1577.668,490.5,0.926
1578.64,491.0,0.926
1579.602,491.5,0.926
1580.569,492.0,0.926
1581.547,492.5,0.926
1582.52,493.0,0.925
1583.487,493.5,0.925
1584.467,494.0,0.925
1585.448,494.5,0.925
1586.412,495.0,0.925
1587.376,495.5,0.925
1588.352,496.0,0.925
1589.316,496.5,0.925
1590.299,497.0,0.924
1591.272,497.5,0.924
1592.242,498.0,0.924
1593.222,498.5,0.924
1594.192,499.0,0.924
1595.176,499.5,0.924
1596.145,500.0,0.924
1597.108,500.5,0.923
1598.062,501.0,0.923
1599.052,501.5,0.923
1600.021,502.0,0.923
1600.981,502.5,0.923
1601.955,503.0,0.923
1602.937,503.5,0.922
1603.903,504.0,0.922
1604.875,504.5,0.922
1605.858,505.0,0.922
1606.815,505.5,0.921
1607.804,506.0,0.921
1608.779,506.5,0.921
1609.758,507.0,0.921
1610.739,507.5,0.921
1611.692,508.0,0.92
1612.652,508.5,0.92
1613.619,509.0,0.92
1614.599,509.5,0.92
1615.577,510.0,0.92
1616.544,510.5,0.919
1617.513,511.0,0.919
1618.492,511.5,0.919
1619.479,512.0,0.919
1620.455,512.5,0.919
1621.422,513.0,0.919
1622.39,513.5,0.918
1623.363,514.0,0.918
1624.344,514.5,0.918
1625.306,515.0,0.918
1626.279,515.5,0.917
1627.25,516.0,0.917
1628.229,516.5,0.917
1629.197,517.0,0.917
1630.167,517.5,0.916
1631.157,518.0,0.916
1632.114,518.5,0.916
1633.08,519.0,0.915
1634.078,519.5,0.915
1635.046,520.0,0.915
1636.014,520.5,0.915
1636.986,521.0,0.914
1637.974,521.5,0.914
1638.949,522.0,0.914
1639.92,522.5,0.913
1640.893,523.0,0.913
1641.859,523.5,0.913
1642.837,524.0,0.912
1643.81,524.5,0.912
1644.788,525.0,0.912
1645.767,525.5,0.911
1646.737,526.0,0.911
1647.718,526.5,0.911
1648.696,527.0,0.91
1649.672,527.5,0.91
1650.652,528.0,0.91
1651.624,528.5,0.909
1652.6,529.0,0.909
1653.579,529.5,0.908
1654.543,530.0,0.908
1655.518,530.5,0.908
1656.514,531.0,0.907
1657.496,531.5,0.907
1658.461,532.0,0.907
1659.432,532.5,0.906
1660.415,533.0,0.906
1661.392,533.5,0.906
1662.361,534.0,0.905
1663.336,534.5,0.905
1664.322,535.0,0.904
1665.295,535.5,0.904
1666.28,536.0,0.903
1667.257,536.5,0.903
1668.223,537.0,0.902
1669.215,537.5,0.902
1670.194,538.0,0.901
1671.151,538.5,0.901
1672.139,539.0,0.9
1673.105,539.5,0.9
1674.08,540.0,0.899
1675.071,540.5,0.899
1676.01,541.0,0.898
1677.031,541.5,0.897
1677.998,542.0,0.897
1678.984,542.5,0.896
1679.957,543.0,0.896
1680.926,543.5,0.895
1681.885,544.0,0.895
1682.878,544.5,0.894
1683.857,545.0,0.893
1684.844,545.5,0.893
1685.829,546.0,0.892
1686.808,546.5,0.892
1687.779,547.0,0.891
1688.748,547.5,0.89
1689.718,548.0,0.89
1690.709,548.5,0.889
1691.689,549.0,0.888
1692.683,549.5,0.888
1693.653,550.0,0.887
1694.632,550.5,0.886
1695.624,551.0,0.886
1696.601,551.5,0.885
1697.576,552.0,0.884
1698.551,552.5,0.884
1699.525,553.0,0.883
1700.511,553.5,0.882
1701.496,554.0,0.882
1702.475,554.5,0.882
1703.456,555.0,0.881
1704.443,555.5,0.88
1705.421,556.0,0.879
1706.391,556.5,0.879
1707.376,557.0,0.878
1708.366,557.5,0.877
1709.352,558.0,0.876
1710.322,558.5,0.875
1711.303,559.0,0.874
1712.273,559.5,0.873
1713.263,560.0,0.873
1714.247,560.5,0.872
1715.219,561.0,0.871
1716.195,561.5,0.87
1717.167,562.0,0.87
1718.172,562.5,0.869
1719.174,563.0,0.868
1720.128,563.5,0.867
1721.138,564.0,0.866
1722.11,564.5,0.866
1723.08,565.0,0.865
1724.057,565.5,0.864
1725.036,566.0,0.863
1726.027,566.5,0.862
1727.0,567.0,0.861
1727.98,567.5,0.86
1728.963,568.0,0.859
1729.958,568.5,0.858
1730.932,569.0,0.857
1731.908,569.5,0.856
1732.901,570.0,0.856
1733.893,570.5,0.855
1734.885,571.0,0.854
1735.872,571.5,0.853
1736.845,572.0,0.852
1737.822,572.5,0.851
1738.808,573.0,0.85
1739.779,573.5,0.848
1740.769,574.0,0.847
1741.76,574.5,0.846
1742.74,575.0,0.845
1743.728,575.5,0.844
1744.713,576.0,0.843
1745.69,576.5,0.842
1746.685,577.0,0.841
1747.67,577.5,0.84
1748.645,578.0,0.839
1749.633,578.5,0.838
1750.621,579.0,0.836
1751.606,579.5,0.835
1752.587,580.0,0.834
1753.575,580.5,0.833
1754.565,581.0,0.832
1755.553,581.5,0.83
1756.548,582.0,0.829
1757.545,582.5,0.828
1758.528,583.0,0.827
1759.51,583.5,0.826
1760.496,584.0,0.825
1761.477,584.5,0.824
1762.461,585.0,0.822
1763.452,585.5,0.821
1764.442,586.0,0.82
1765.436,586.5,0.818
1766.417,587.0,0.817
1767.389,587.5,0.816
1768.369,588.0,0.814
1769.365,588.5,0.813
1770.365,589.0,0.812
1771.341,589.5,0.81
1772.32,590.0,0.809
1773.313,590.5,0.807
1774.318,591.0,0.806
1775.308,591.5,0.804
1776.293,592.0,0.803
1777.279,592.5,0.801
1778.261,593.0,0.799
1779.256,593.5,0.798
1780.24,594.0,0.797
1781.236,594.5,0.795
1782.22,595.0,0.794
1783.207,595.5,0.792
1784.206,596.0,0.79
1785.186,596.5,0.789
1786.191,597.0,0.787
1787.179,597.5,0.785
1788.171,598.0,0.784
1789.161,598.5,0.782
1790.144,599.0,0.78
1791.133,599.5,0.778
1792.135,600.0,0.776
1793.105,600.5,0.775
1794.093,601.0,0.773
1795.082,601.5,0.771
1796.083,602.0,0.769
1797.092,602.5,0.767
1798.054,603.0,0.765
1799.058,603.5,0.763
1800.06,604.0,0.761
1801.052,604.5,0.759
1802.024,605.0,0.757
1803.024,605.5,0.755
1804.008,606.0,0.753
1804.982,606.5,0.751
1806.004,607.0,0.749
1806.986,607.5,0.747
1807.982,608.0,0.745
1808.974,608.5,0.742
1809.955,609.0,0.74
1810.945,609.5,0.738
1811.957,610.0,0.736
1812.939,610.5,0.734
1813.931,611.0,0.731
1814.936,611.5,0.729
1815.918,612.0,0.727
1816.914,612.5,0.724
1817.903,613.0,0.722
1818.897,613.5,0.72
1819.894,614.0,0.717
1820.887,614.5,0.715
1821.872,615.0,0.713
1822.856,615.5,0.71
1823.863,616.0,0.708
1824.869,616.5,0.705
1825.861,617.0,0.703
1826.855,617.5,0.7
1827.844,618.0,0.698
1828.839,618.5,0.695
1829.831,619.0,0.693
1830.832,619.5,0.691
1831.825,620.0,0.688
1832.809,620.5,0.685
1833.808,621.0,0.683
1834.798,621.5,0.68
1835.787,622.0,0.678
1836.786,622.5,0.675
1837.777,623.0,0.672
1838.785,623.5,0.67
1839.783,624.0,0.667
1840.777,624.5,0.664
1841.771,625.0,0.662
1842.781,625.5,0.659
1843.77,626.0,0.656
1844.771,626.5,0.653
1845.761,627.0,0.651
1846.761,627.5,0.648
1847.759,628.0,0.645
1848.75,628.5,0.642
1849.756,629.0,0.639
1850.749,629.5,0.637
1851.74,630.0,0.634
1852.738,630.5,0.631
1853.737,631.0,0.628
1854.727,631.5,0.625
1855.728,632.0,0.622
1856.73,632.5,0.619
1857.72,633.0,0.616
1858.722,633.5,0.613
1859.711,634.0,0.61
1860.722,634.5,0.607
1861.734,635.0,0.604
1862.724,635.5,0.601
1863.729,636.0,0.598
1864.731,636.5,0.595
1865.731,637.0,0.592
1866.722,637.5,0.589
1867.709,638.0,0.586
1868.715,638.5,0.583
1869.705,639.0,0.58
1870.713,639.5,0.577
1871.707,640.0,0.574
1872.711,640.5,0.571
1873.72,641.0,0.567
1874.728,641.5,0.564
1875.72,642.0,0.561
1876.713,642.5,0.558
1877.712,643.0,0.555
1878.711,643.5,0.551
1879.722,644.0,0.548
1880.727,644.5,0.545
1881.725,645.0,0.542
1882.72,645.5,0.538
1883.722,646.0,0.535
1884.727,646.5,0.532
1885.725,647.0,0.528
1886.715,647.5,0.525
1887.715,648.0,0.521
1888.723,648.5,0.518
1889.726,649.0,0.514
1890.717,649.5,0.511
1891.732,650.0,0.507
1892.731,650.5,0.504
1893.735,651.0,0.5
1894.735,651.5,0.497
1895.734,652.0,0.493
1896.741,652.5,0.489
1897.752,653.0,0.485
1898.754,653.5,0.482
1899.757,654.0,0.478
1900.761,654.5,0.474
1901.765,655.0,0.47
1902.769,655.5,0.467
1903.768,656.0,0.463
1904.782,656.5,0.459
1905.796,657.0,0.455
1906.787,657.5,0.451
1907.795,658.0,0.447
1908.795,658.5,0.443
1909.799,659.0,0.439
1910.806,659.5,0.435
1911.819,660.0,0.431
1912.814,660.5,0.427
1913.806,661.0,0.422
1914.834,661.5,0.418
1915.825,662.0,0.414
1916.824,662.5,0.41
1917.841,663.0,0.406
1918.837,663.5,0.401
1919.846,664.0,0.397
1920.869,664.5,0.393
1921.877,665.0,0.388
1922.862,665.5,0.384
1923.872,666.0,0.38
1924.883,666.5,0.375
1925.895,667.0,0.37
1926.889,667.5,0.366
1927.897,668.0,0.362
1928.922,668.5,0.357
1929.917,669.0,0.352
1930.914,669.5,0.348
1931.923,670.0,0.344
1932.928,670.5,0.339
1933.928,671.0,0.335
1934.93,671.5,0.331
1935.955,672.0,0.326
1936.968,672.5,0.322
1937.94,673.0,0.318
1938.969,673.5,0.314
1939.974,674.0,0.31
1940.982,674.5,0.306
1941.972,675.0,0.302
1942.998,675.5,0.298
1943.988,676.0,0.294
1945.0,676.5,0.291
1946.0,677.0,0.287
1947.014,677.5,0.283
1948.018,678.0,0.28
1949.01,678.5,0.277
1950.014,679.0,0.273
1951.03,679.5,0.27
1952.026,680.0,0.267
1953.018,680.5,0.264
1954.023,681.0,0.262
1955.046,681.5,0.259
1956.054,682.0,0.256
1957.046,682.5,0.254
1958.037,683.0,0.252
1959.061,683.5,0.249
1960.051,684.0,0.247
1961.062,684.5,0.245
1962.054,685.0,0.243
1963.052,685.5,0.242
1964.05,686.0,0.24
1965.057,686.5,0.238
1966.066,687.0,0.237
1967.065,687.5,0.236
1968.059,688.0,0.234
1969.071,688.5,0.233
1970.088,689.0,0.232
1971.087,689.5,0.231
1972.1,690.0,0.23
1973.103,690.5,0.23
1974.107,691.0,0.229
1975.102,691.5,0.228
1976.106,692.0,0.227
1977.12,692.5,0.227
1978.124,693.0,0.226
1979.124,693.5,0.226
1980.141,694.0,0.225
1981.144,694.5,0.225
1982.143,695.0,0.224
1983.139,695.5,0.224
1984.161,696.0,0.223
1985.177,696.5,0.223
1986.184,697.0,0.223
1987.199,697.5,0.222
1988.2,698.0,0.222
1989.215,698.5,0.221
1990.216,699.0,0.221
1991.211,699.5,0.221
1992.222,700.0,0.22
1993.225,700.5,0.22
1994.235,701.0,0.22
1995.235,701.5,0.219
1996.249,702.0,0.219
1997.259,702.5,0.219
1998.264,703.0,0.218
1999.27,703.5,0.218
2000.277,704.0,0.218
2001.278,704.5,0.217
2002.282,705.0,0.217
2003.293,705.5,0.217
2004.303,706.0,0.217
2005.317,706.5,0.216
2006.31,707.0,0.216
2007.31,707.5,0.216
2008.329,708.0,0.215
2009.347,708.5,0.215
2010.348,709.0,0.215
2011.355,709.5,0.215
2012.355,710.0,0.214
2013.364,710.5,0.214
2014.383,711.0,0.214
2015.388,711.5,0.214
2016.393,712.0,0.213
2017.42,712.5,0.213
2018.427,713.0,0.213
2019.423,713.5,0.212
2020.436,714.0,0.212
2021.447,714.5,0.212
2022.455,715.0,0.212
2023.463,715.5,0.211
2024.474,716.0,0.211
2025.477,716.5,0.211
2026.478,717.0,0.21
2027.494,717.5,0.21
2028.505,718.0,0.209
2029.513,718.5,0.209
2030.521,719.0,0.209
2031.525,719.5,0.209
2032.535,720.0,0.208
2033.538,720.5,0.208
2034.544,721.0,0.208
2035.564,721.5,0.208
2036.574,722.0,0.207
2037.581,722.5,0.207
2038.587,723.0,0.207
2039.6,723.5,0.207
2040.612,724.0,0.206
2041.623,724.5,0.206
2042.621,725.0,0.206
2043.631,725.5,0.206
2044.636,726.0,0.205
2045.647,726.5,0.205
2046.651,727.0,0.205
2047.67,727.5,0.205
2048.675,728.0,0.204
2049.68,728.5,0.204
2050.704,729.0,0.204
2051.702,729.5,0.204
2052.717,730.0,0.204
2053.734,730.5,0.203
2054.744,731.0,0.203
2055.752,731.5,0.203
2056.765,732.0,0.202
2057.763,732.5,0.202
2058.768,733.0,0.202
2059.786,733.5,0.202
2060.803,734.0,0.201
2061.809,734.5,0.201
2062.818,735.0,0.201
2063.83,735.5,0.2
2064.846,736.0,0.2
2065.85,736.5,0.2
2066.866,737.0,0.2
2067.87,737.5,0.2
2068.884,738.0,0.199
2069.89,738.5,0.199
2070.895,739.0,0.199
2071.907,739.5,0.199
2072.921,740.0,0.199
2073.933,740.5,0.198
2074.943,741.0,0.198
2075.944,741.5,0.198
2076.957,742.0,0.198
2077.962,742.5,0.197
2078.992,743.0,0.197
2080.0,743.5,0.197
2080.988,744.0,0.197
2082.004,744.5,0.197
2083.012,745.0,0.196
2084.033,745.5,0.196
2085.054,746.0,0.196
2086.058,746.5,0.196
2087.061,747.0,0.196
2088.079,747.5,0.195
2089.087,748.0,0.195
2090.102,748.5,0.195
2091.107,749.0,0.195
2092.129,749.5,0.195
2093.135,750.0,0.194
2094.147,750.5,0.194
2095.165,751.0,0.194
2096.185,751.5,0.194
2097.195,752.0,0.194
2098.19,752.5,0.193
2099.192,753.0,0.193
2100.202,753.5,0.193
2101.212,754.0,0.193
2102.234,754.5,0.193
2103.25,755.0,0.192
2104.251,755.5,0.192
2105.271,756.0,0.192
2106.286,756.5,0.192
2107.29,757.0,0.192
2108.298,757.5,0.192
2109.318,758.0,0.192
2110.325,758.5,0.191
2111.331,759.0,0.191
2112.332,759.5,0.191
2113.341,760.0,0.191
2114.348,760.5,0.191
2115.363,761.0,0.191
2116.38,761.5,0.19
2117.391,762.0,0.19
2118.396,762.5,0.19
2119.416,763.0,0.19
2120.431,763.5,0.19
2121.429,764.0,0.19
2122.44,764.5,0.189
2123.454,765.0,0.189
2124.464,765.5,0.189
2125.479,766.0,0.189
2126.486,766.5,0.189
2127.495,767.0,0.189
2128.501,767.5,0.188
2129.522,768.0,0.188
2130.535,768.5,0.188
2131.545,769.0,0.188
2132.554,769.5,0.188
2133.561,770.0,0.187
2134.566,770.5,0.187
2135.561,771.0,0.187
2136.575,771.5,0.187
2137.59,772.0,0.187
2138.6,772.5,0.187
2139.604,773.0,0.187
